Raw Data
Time Displacement Force
(s) (mm) (N)
0.0000 0.0000 0.1337
0.0200 0.0000 0.1287
0.0400 0.0008 0.1579
0.0600 0.0041 0.1780
0.0800 0.0095 0.1302
0.1000 0.0153 0.1250
0.1200 0.0212 0.1611
0.1400 0.0279 0.1374
0.1600 0.0352 0.1347
0.1800 0.0426 0.1486
0.2000 0.0498 0.1295
0.2200 0.0567 0.1338
0.2400 0.0634 0.1478
0.2600 0.0700 0.1393
0.2800 0.0767 0.1450
0.3000 0.0834 0.1595
0.3200 0.0901 0.1385
0.3400 0.0969 0.1526
0.3600 0.1035 0.1555
0.3800 0.1102 0.1504
0.4000 0.1168 0.1598
0.4200 0.1235 0.1615
0.4400 0.1302 0.1509
0.4600 0.1369 0.1560
0.4800 0.1436 0.1685
0.5000 0.1503 0.1600
0.5200 0.1569 0.1577
0.5400 0.1636 0.1704
0.5600 0.1701 0.1587
0.5800 0.1768 0.1660
0.6000 0.1835 0.1703
0.6200 0.1902 0.1641
0.6400 0.1969 0.1705
0.6600 0.2036 0.1676
0.6800 0.2102 0.1684
0.7000 0.2169 0.1724
0.7200 0.2236 0.1708
0.7400 0.2302 0.1708
0.7600 0.2368 0.1731
0.7800 0.2435 0.1690
0.8000 0.2502 0.1730
0.8200 0.2569 0.1716
0.8400 0.2635 0.1748
0.8600 0.2702 0.1766
0.8800 0.2769 0.1734
0.9000 0.2835 0.1751
0.9200 0.2901 0.1809
0.9400 0.2967 0.1727
0.9600 0.3034 0.1780
0.9800 0.3101 0.1776
1.0000 0.3168 0.1751
1.0200 0.3235 0.1764
1.0400 0.3302 0.1768
1.0600 0.3369 0.1728
1.0800 0.3435 0.1782
1.1000 0.3501 0.1821
1.1200 0.3568 0.1757
1.1400 0.3635 0.1765
1.1600 0.3702 0.1809
1.1800 0.3769 0.1742
1.2000 0.3836 0.1745
1.2200 0.3903 0.1803
1.2400 0.3970 0.1732
1.2600 0.4036 0.1720
1.2800 0.4102 0.1783
1.3000 0.4168 0.1765
1.3200 0.4235 0.1756
1.3400 0.4302 0.1757
1.3600 0.4369 0.1717
1.3800 0.4436 0.1770
1.4000 0.4503 0.1762
1.4200 0.4569 0.1737
1.4400 0.4635 0.1719
1.4600 0.4701 0.1736
1.4800 0.4768 0.1696
1.5000 0.4834 0.1772
1.5200 0.4902 0.1685
1.5400 0.4969 0.1681
1.5600 0.5035 0.1775
1.5800 0.5102 0.1665
1.6000 0.5169 0.1692
1.6200 0.5235 0.1739
1.6400 0.5301 0.1666
1.6600 0.5368 0.1713
1.6800 0.5435 0.1716
1.7000 0.5502 0.1638
1.7200 0.5569 0.1693
1.7400 0.5635 0.1756
1.7600 0.5702 0.1603
1.7800 0.5769 0.1709
1.8000 0.5836 0.1702
1.8200 0.5902 0.1663
1.8400 0.5968 0.1734
1.8600 0.6035 0.1644
1.8800 0.6102 0.1663
1.9000 0.6169 0.1698
1.9200 0.6236 0.1693
1.9400 0.6303 0.1710
1.9600 0.6369 0.1676
1.9800 0.6436 0.1573
2.0000 0.6502 0.1736
2.0200 0.6568 0.1693
2.0400 0.6635 0.1673
2.0600 0.6702 0.1698
2.0800 0.6769 0.1612
2.1000 0.6836 0.1662
2.1200 0.6903 0.1733
2.1400 0.6969 0.1641
2.1600 0.7036 0.1701
2.1800 0.7102 0.1737
2.2000 0.7168 0.1629
2.2200 0.7235 0.1726
2.2400 0.7302 0.1733
2.2600 0.7369 0.1605
2.2800 0.7436 0.1717
2.3000 0.7502 0.1708
2.3200 0.7569 0.1670
2.3400 0.7636 0.1703
2.3600 0.7702 0.1646
2.3800 0.7768 0.1672
2.4000 0.7834 0.1739
2.4200 0.7901 0.1703
2.4400 0.7968 0.1651
2.4600 0.8035 0.1719
2.4800 0.8102 0.1646
2.5000 0.8169 0.1735
2.5200 0.8236 0.1705
2.5400 0.8302 0.1626
2.5600 0.8368 0.1716
2.5800 0.8435 0.1688
2.6000 0.8502 0.1625
2.6200 0.8569 0.1721
2.6400 0.8636 0.1671
2.6600 0.8703 0.1610
2.6800 0.8769 0.1684
2.7000 0.8836 0.1665
2.7200 0.8902 0.1605
2.7400 0.8968 0.1802
2.7600 0.9035 0.1591
2.7800 0.9102 0.1625
2.8000 0.9169 0.1795
2.8200 0.9236 0.1544
2.8400 0.9303 0.1641
2.8600 0.9370 0.1761
2.8800 0.9436 0.1563
2.9000 0.9502 0.1669
2.9200 0.9568 0.1726
2.9400 0.9634 0.1566
2.9600 0.9701 0.1700
2.9800 0.9769 0.1673
3.0000 0.9835 0.1598
3.0200 0.9902 0.1646
3.0400 0.9969 0.1661
3.0600 1.0036 0.1577
3.0800 1.0102 0.1676
3.1000 1.0168 0.1645
3.1200 1.0234 0.1639
3.1400 1.0301 0.1652
3.1600 1.0368 0.1612
3.1800 1.0435 0.1638
3.2000 1.0502 0.1655
3.2200 1.0569 0.1612
3.2400 1.0636 0.1637
3.2600 1.0702 0.1569
3.2800 1.0768 0.1697
3.3000 1.0835 0.1592
3.3200 1.0902 0.1557
3.3400 1.0969 0.1711
3.3600 1.1036 0.1574
3.3800 1.1103 0.1609
3.4000 1.1170 0.1667
3.4200 1.1236 0.1567
3.4400 1.1302 0.1586
3.4600 1.1368 0.1701
3.4800 1.1435 0.1605
3.5000 1.1502 0.1607
3.5200 1.1569 0.1624
3.5400 1.1636 0.1549
3.5600 1.1703 0.1654
3.5800 1.1769 0.1659
3.6000 1.1836 0.1540
3.6200 1.1902 0.1633
3.6400 1.1968 0.1634
3.6600 1.2035 0.1651
3.6800 1.2102 0.1575
3.7000 1.2169 0.1609
3.7200 1.2236 0.1619
3.7400 1.2302 0.1572
3.7600 1.2369 0.1670
3.7800 1.2436 0.1619
3.8000 1.2502 0.1532
3.8200 1.2568 0.1653
3.8400 1.2635 0.1638
3.8600 1.2702 0.1596
3.8800 1.2769 0.1609
3.9000 1.2835 0.1627
3.9200 1.2902 0.1567
3.9400 1.2969 0.1590
3.9600 1.3036 0.1629
3.9800 1.3102 0.1558
4.0000 1.3168 0.1588
4.0200 1.3235 0.1588
4.0400 1.3301 0.1604
4.0600 1.3369 0.1597
4.0800 1.3436 0.1661
4.1000 1.3502 0.1553
4.1200 1.3569 0.1569
4.1400 1.3636 0.1632
4.1600 1.3702 0.1550
4.1800 1.3768 0.1567
4.2000 1.3835 0.1666
4.2200 1.3902 0.1487
4.2400 1.3969 0.1608
4.2600 1.4036 0.1627
4.2800 1.4103 0.1513
4.3000 1.4169 0.1621
4.3200 1.4236 0.1626
4.3400 1.4302 0.1524
4.3600 1.4368 0.1630
4.3800 1.4435 0.1599
4.4000 1.4502 0.1529
4.4200 1.4569 0.1618
4.4400 1.4635 0.1569
4.4600 1.4702 0.1568
4.4800 1.4769 0.1590
4.5000 1.4836 0.1556
4.5200 1.4902 0.1581
4.5400 1.4968 0.1598
4.5600 1.5034 0.1537
4.5800 1.5101 0.1597
4.6000 1.5168 0.1530
4.6200 1.5235 0.1615
4.6400 1.5302 0.1594
4.6600 1.5369 0.1507
4.6800 1.5436 0.1525
4.7000 1.5502 0.1604
4.7200 1.5568 0.1565
4.7400 1.5635 0.1562
4.7600 1.5702 0.1552
4.7800 1.5769 0.1526
4.8000 1.5836 0.1541
4.8200 1.5903 0.1588
4.8400 1.5969 0.1476
4.8600 1.6036 0.1612
4.8800 1.6102 0.1528
4.9000 1.6168 0.1458
4.9200 1.6235 0.1590
4.9400 1.6302 0.1579
4.9600 1.6369 0.1495
4.9800 1.6436 0.1489
5.0000 1.6503 0.1577
5.0200 1.6569 0.1525
5.0400 1.6636 0.1467
5.0600 1.6702 0.1456
5.0800 1.6768 0.1557
5.1000 1.6834 0.1523
5.1200 1.6901 0.1484
5.1400 1.6968 0.1518
5.1600 1.7035 0.1546
5.1800 1.7102 0.1489
5.2000 1.7169 0.1520
5.2200 1.7236 0.1473
5.2400 1.7302 0.1554
5.2600 1.7368 0.1524
5.2800 1.7434 0.1452
5.3000 1.7501 0.1535
5.3200 1.7569 0.1529
5.3400 1.7636 0.1439
5.3600 1.7702 0.1463
5.3800 1.7769 0.1512
5.4000 1.7835 0.1460
5.4200 1.7902 0.1523
5.4400 1.7968 0.1515
5.4600 1.8035 0.1422
5.4800 1.8102 0.1537
5.5000 1.8169 0.1517
5.5200 1.8236 0.1424
5.5400 1.8302 0.1549
5.5600 1.8369 0.1474
5.5800 1.8436 0.1435
5.6000 1.8503 0.1530
5.6200 1.8568 0.1510
5.6400 1.8635 0.1427
5.6600 1.8702 0.1522
5.6800 1.8769 0.1460
5.7000 1.8836 0.1393
5.7200 1.8903 0.1554
5.7400 1.8969 0.1491
5.7600 1.9036 0.1285
5.7800 1.9102 0.1536
5.8000 1.9168 0.1470
5.8200 1.9234 0.1430
5.8400 1.9301 0.1529
5.8600 1.9368 0.1388
5.8800 1.9435 0.1415
5.9000 1.9502 0.1568
5.9200 1.9569 0.1408
5.9400 1.9635 0.1363
5.9600 1.9702 0.1535
5.9800 1.9768 0.1386
6.0000 1.9834 0.1453
6.0200 1.9901 0.1545
6.0400 1.9968 0.1399
6.0600 2.0035 0.1405
6.0800 2.0102 0.1452
6.1000 2.0169 0.1399
6.1200 2.0236 0.1479
6.1400 2.0303 0.1430
6.1600 2.0369 0.1357
6.1800 2.0435 0.1396
6.2000 2.0501 0.1505
6.2200 2.0568 0.1367
6.2400 2.0635 0.1442
6.2600 2.0702 0.1425
6.2800 2.0769 0.1398
6.3000 2.0836 0.1467
6.3200 2.0903 0.1414
6.3400 2.0968 0.1359
6.3600 2.1035 0.1479
6.3800 2.1101 0.1452
6.4000 2.1169 0.1397
6.4200 2.1236 0.1438
6.4400 2.1302 0.1409
6.4600 2.1369 0.1363
6.4800 2.1436 0.1445
6.5000 2.1503 0.1414
6.5200 2.1569 0.1377
6.5400 2.1635 0.1440
6.5600 2.1702 0.1423
6.5800 2.1768 0.1387
6.6000 2.1835 0.1424
6.6200 2.1902 0.1406
6.6400 2.1969 0.1358
6.6600 2.2036 0.1451
6.6800 2.2102 0.1399
6.7000 2.2168 0.1368
6.7200 2.2234 0.1417
6.7400 2.2301 0.1443
6.7600 2.2368 0.1317
6.7800 2.2435 0.1438
6.8000 2.2502 0.1388
6.8200 2.2569 0.1342
6.8400 2.2636 0.1429
6.8600 2.2702 0.1412
6.8800 2.2768 0.1347
6.9000 2.2835 0.1457
6.9200 2.2901 0.1402
6.9400 2.2968 0.1324
6.9600 2.3035 0.1404
6.9800 2.3102 0.1392
7.0000 2.3169 0.1381
7.0200 2.3236 0.1438
7.0400 2.3303 0.1299
7.0600 2.3369 0.1356
7.0800 2.3435 0.1479
7.1000 2.3502 0.1313
7.1200 2.3568 0.1375
7.1400 2.3635 0.1410
7.1600 2.3702 0.1334
7.1800 2.3769 0.1336
7.2000 2.3836 0.1439
7.2200 2.3903 0.1290
7.2400 2.3969 0.1316
7.2600 2.4035 0.1431
7.2800 2.4101 0.1362
7.3000 2.4168 0.1311
7.3200 2.4236 0.1427
7.3400 2.4303 0.1351
7.3600 2.4369 0.1381
7.3800 2.4436 0.1325
7.4000 2.4502 0.1311
7.4200 2.4568 0.1408
7.4400 2.4634 0.1357
7.4600 2.4701 0.1308
7.4800 2.4768 0.1378
7.5000 2.4835 0.1347
7.5200 2.4902 0.1332
7.5400 2.4969 0.1364
7.5600 2.5036 0.1358
7.5800 2.5102 0.1319
7.6000 2.5169 0.1384
7.6200 2.5235 0.1304
7.6400 2.5301 0.1314
7.6600 2.5368 0.1427
7.6800 2.5435 0.1303
7.7000 2.5502 0.1354
7.7200 2.5569 0.1334
7.7400 2.5636 0.1345
7.7600 2.5703 0.1347
7.7800 2.5769 0.1338
7.8000 2.5835 0.1337
7.8200 2.5902 0.1369
7.8400 2.5969 0.1292
7.8600 2.6036 0.1335
7.8800 2.6103 0.1403
7.9000 2.6169 0.1295
7.9200 2.6236 0.1324
7.9400 2.6302 0.1375
7.9600 2.6368 0.1265
7.9800 2.6435 0.1424
8.0000 2.6501 0.1360
8.0200 2.6568 0.1283
8.0400 2.6635 0.1323
8.0600 2.6702 0.1348
8.0800 2.6769 0.1311
8.1000 2.6836 0.1391
8.1200 2.6902 0.1290
8.1400 2.6969 0.1228
8.1600 2.7035 0.1392
8.1800 2.7101 0.1332
8.2000 2.7168 0.1315
8.2200 2.7235 0.1322
8.2400 2.7302 0.1281
8.2600 2.7369 0.1346
8.2800 2.7436 0.1226
8.3000 2.7503 0.1171
8.3200 2.7569 0.1495
8.3400 2.7635 0.1322
8.3600 2.7701 0.1133
8.3800 2.7768 0.1367
8.4000 2.7835 0.1328
8.4200 2.7902 0.1231
8.4400 2.7969 0.1480
8.4600 2.8036 0.1115
8.4800 2.8103 0.1207
8.5000 2.8169 0.1592
8.5200 2.8235 0.1134
8.5400 2.8301 0.1193
8.5600 2.8368 0.1494
8.5800 2.8436 0.1181
8.6000 2.8503 0.1360
8.6200 2.8569 0.1336
8.6400 2.8636 0.1100
8.6600 2.8703 0.1504
8.6800 2.8769 0.1366
8.7000 2.8835 0.1035
8.7200 2.8901 0.1439
8.7400 2.8968 0.1258
8.7600 2.9035 0.1193
8.7800 2.9102 0.1578
8.8000 2.9169 0.1024
8.8200 2.9236 0.1249
8.8400 2.9302 0.1501
8.8600 2.9368 0.1015
8.8800 2.9434 0.1467
8.9000 2.9501 0.1468
8.9200 2.9568 0.0896
8.9400 2.9635 0.1457
8.9600 2.9702 0.1372
8.9800 2.9768 0.1059
9.0000 2.9835 0.1516
9.0200 2.9902 0.1270
9.0400 2.9969 0.1087
9.0600 3.0035 0.1546
9.0800 3.0101 0.1111
9.1000 3.0168 0.1244
9.1200 3.0235 0.1615
9.1400 3.0303 0.1044
9.1600 3.0369 0.1245
9.1800 3.0436 0.1499
9.2000 3.0503 0.1083
9.2200 3.0569 0.1357
9.2400 3.0635 0.1456
9.2600 3.0701 0.1101
9.2800 3.0768 0.1356
9.3000 3.0835 0.1320
9.3200 3.0902 0.1227
9.3400 3.0969 0.1444
9.3600 3.1036 0.1300
9.3800 3.1103 0.1186
9.4000 3.1169 0.1402
9.4200 3.1235 0.1173
9.4400 3.1301 0.1317
9.4600 3.1368 0.1419
9.4800 3.1435 0.1197
9.5000 3.1502 0.1233
9.5200 3.1569 0.1344
9.5400 3.1636 0.1255
9.5600 3.1703 0.1315
9.5800 3.1769 0.1306
9.6000 3.1835 0.1248
9.6200 3.1901 0.1259
9.6400 3.1968 0.1339
9.6600 3.2035 0.1241
9.6800 3.2102 0.1271
9.7000 3.2169 0.1288
9.7200 3.2235 0.1203
9.7400 3.2302 0.1316
9.7600 3.2369 0.1284
9.7800 3.2435 0.1230
9.8000 3.2501 0.1280
9.8200 3.2568 0.1322
9.8400 3.2635 0.1234
9.8600 3.2703 0.1288
9.8800 3.2769 0.1275
9.9000 3.2836 0.1249
9.9200 3.2903 0.1242
9.9400 3.2969 0.1265
9.9600 3.3035 0.1229
9.9800 3.3101 0.1274
10.0000 3.3168 0.1300
10.0200 3.3236 0.1241
10.0400 3.3303 0.1206
10.0600 3.3369 0.1358
10.0800 3.3436 0.1257
10.1000 3.3503 0.1270
10.1200 3.3569 0.1281
10.1400 3.3635 0.1197
10.1600 3.3701 0.1241
10.1800 3.3768 0.1335
10.2000 3.3835 0.1240
10.2200 3.3902 0.1243
10.2400 3.3969 0.1281
10.2600 3.4036 0.1239
10.2800 3.4102 0.1241
10.3000 3.4169 0.1313
10.3200 3.4235 0.1201
10.3400 3.4301 0.1227
10.3600 3.4368 0.1318
10.3800 3.4435 0.1209
10.4000 3.4502 0.1248
10.4200 3.4569 0.1262
10.4400 3.4635 0.1224
10.4600 3.4702 0.1190
10.4800 3.4769 0.1298
10.5000 3.4835 0.1209
10.5200 3.4901 0.1235
10.5400 3.4968 0.1264
10.5600 3.5035 0.1195
10.5800 3.5102 0.1191
10.6000 3.5169 0.1298
10.6200 3.5236 0.1198
10.6400 3.5303 0.1190
10.6600 3.5369 0.1227
10.6800 3.5435 0.1162
10.7000 3.5501 0.1243
10.7200 3.5568 0.1248
10.7400 3.5635 0.1184
10.7600 3.5702 0.1215
10.7800 3.5769 0.1212
10.8000 3.5836 0.1209
10.8200 3.5903 0.1211
10.8400 3.5969 0.1196
10.8600 3.6035 0.1219
10.8800 3.6101 0.1227
10.9000 3.6168 0.1193
10.9200 3.6235 0.1216
10.9400 3.6302 0.1227
10.9600 3.6369 0.1151
10.9800 3.6436 0.1181
11.0000 3.6503 0.1222
11.0200 3.6569 0.1201
11.0400 3.6635 0.1113
11.0600 3.6701 0.1217
11.0800 3.6768 0.1203
11.1000 3.6835 0.1187
11.1200 3.6902 0.1141
11.1400 3.6969 0.1216
11.1600 3.7035 0.1179
11.1800 3.7102 0.1135
11.2000 3.7169 0.1183
11.2200 3.7235 0.1245
11.2400 3.7301 0.1196
11.2600 3.7368 0.1130
11.2800 3.7435 0.1157
11.3000 3.7502 0.1225
11.3200 3.7569 0.1201
11.3400 3.7636 0.1135
11.3600 3.7703 0.1203
11.3800 3.7770 0.1139
11.4000 3.7835 0.1107
11.4200 3.7901 0.1239
11.4400 3.7968 0.1248
11.4600 3.8035 0.1096
11.4800 3.8103 0.1150
11.5000 3.8169 0.1154
11.5200 3.8236 0.1253
11.5400 3.8303 0.1170
11.5600 3.8369 0.1123
11.5800 3.8435 0.1135
11.6000 3.8501 0.1288
11.6200 3.8568 0.1128
11.6400 3.8635 0.1130
11.6600 3.8702 0.1283
11.6800 3.8769 0.1105
11.7000 3.8835 0.1129
11.7200 3.8902 0.1291
11.7400 3.8969 0.1121
11.7600 3.9035 0.1110
11.7800 3.9101 0.1184
11.8000 3.9167 0.1163
11.8200 3.9234 0.1275
11.8400 3.9302 0.1166
11.8600 3.9369 0.1055
11.8800 3.9435 0.1271
11.9000 3.9502 0.1152
11.9200 3.9569 0.1113
11.9400 3.9635 0.1314
11.9600 3.9701 0.1128
11.9800 3.9768 0.1094
12.0000 3.9835 0.1194
12.0200 3.9902 0.1178
12.0400 3.9969 0.1197
12.0600 4.0036 0.1213
12.0800 4.0103 0.1073
12.1000 4.0169 0.1185
12.1200 4.0235 0.1239
12.1400 4.0302 0.1099
12.1600 4.0368 0.1148
12.1800 4.0435 0.1244
12.2000 4.0502 0.1060
12.2200 4.0569 0.1194
12.2400 4.0636 0.1188
12.2600 4.0703 0.1117
12.2800 4.0770 0.1176
12.3000 4.0836 0.1109
12.3200 4.0901 0.1171
12.3400 4.0968 0.1222
12.3600 4.1035 0.1088
12.3800 4.1102 0.1130
12.4000 4.1169 0.1179
12.4200 4.1236 0.1079
12.4400 4.1303 0.1180
12.4600 4.1369 0.1172
12.4800 4.1435 0.1091
12.5000 4.1501 0.1185
12.5200 4.1568 0.1163
12.5400 4.1635 0.1090
12.5600 4.1702 0.1189
12.5800 4.1769 0.1041
12.6000 4.1835 0.1145
12.6200 4.1902 0.1182
12.6400 4.1969 0.1044
12.6600 4.2035 0.1115
12.6800 4.2102 0.1230
12.7000 4.2168 0.1031
12.7200 4.2235 0.1127
12.7400 4.2302 0.1202
12.7600 4.2369 0.1065
12.7800 4.2436 0.1130
12.8000 4.2503 0.1167
12.8200 4.2570 0.1016
12.8400 4.2636 0.1198
12.8600 4.2701 0.1137
12.8800 4.2768 0.1048
12.9000 4.2835 0.1227
12.9200 4.2902 0.1094
12.9400 4.2969 0.1051
12.9600 4.3036 0.1171
12.9800 4.3103 0.1096
13.0000 4.3169 0.1074
13.0200 4.3235 0.1154
13.0400 4.3302 0.1081
13.0600 4.3368 0.1130
13.0800 4.3435 0.1156
13.1000 4.3502 0.1068
13.1200 4.3569 0.1131
13.1400 4.3636 0.1147
13.1600 4.3702 0.1076
13.1800 4.3769 0.1112
13.2000 4.3835 0.1080
13.2200 4.3901 0.1140
13.2400 4.3968 0.1138
13.2600 4.4034 0.1071
13.2800 4.4102 0.1126
13.3000 4.4169 0.1171
13.3200 4.4236 0.1063
13.3400 4.4303 0.1131
13.3600 4.4369 0.1158
13.3800 4.4435 0.1086
13.4000 4.4501 0.1177
13.4200 4.4568 0.1123
13.4400 4.4635 0.1089
13.4600 4.4702 0.1204
13.4800 4.4769 0.1091
13.5000 4.4836 0.1116
13.5200 4.4903 0.1207
13.5400 4.4969 0.1041
13.5600 4.5035 0.1148
13.5800 4.5102 0.1182
13.6000 4.5168 0.1077
13.6200 4.5235 0.1169
13.6400 4.5302 0.1164
13.6600 4.5369 0.1010
13.6800 4.5436 0.1192
13.7000 4.5502 0.1162
13.7200 4.5569 0.1041
13.7400 4.5635 0.1190
13.7600 4.5701 0.1142
13.7800 4.5768 0.1031
13.8000 4.5834 0.1240
13.8200 4.5902 0.1105
13.8400 4.5969 0.1074
13.8600 4.6035 0.1207
13.8800 4.6103 0.1051
13.9000 4.6169 0.1041
13.9200 4.6235 0.1205
13.9400 4.6301 0.1094
13.9600 4.6368 0.1102
13.9800 4.6434 0.1205
14.0000 4.6502 0.1066
14.0200 4.6569 0.1114
14.0400 4.6636 0.1200
14.0600 4.6702 0.1052
14.0800 4.6769 0.1091
14.1000 4.6835 0.1138
14.1200 4.6901 0.1067
14.1400 4.6968 0.1149
14.1600 4.7035 0.1104
14.1800 4.7102 0.1099
14.2000 4.7169 0.1123
14.2200 4.7236 0.1092
14.2400 4.7303 0.1119
14.2600 4.7369 0.1129
14.2800 4.7436 0.1057
14.3000 4.7502 0.1117
14.3200 4.7568 0.1108
14.3400 4.7635 0.1050
14.3600 4.7702 0.1154
14.3800 4.7769 0.1095
14.4000 4.7836 0.1023
14.4200 4.7903 0.1203
14.4400 4.7970 0.1071
14.4600 4.8036 0.1026
14.4800 4.8102 0.1198
14.5000 4.8168 0.1025
14.5200 4.8235 0.1065
14.5400 4.8302 0.1175
14.5600 4.8369 0.1004
14.5800 4.8435 0.1062
14.6000 4.8502 0.1189
14.6200 4.8569 0.1014
14.6400 4.8635 0.1079
14.6600 4.8701 0.1148
14.6800 4.8768 0.1019
14.7000 4.8834 0.1111
14.7200 4.8902 0.1117
14.7400 4.8969 0.0956
14.7600 4.9035 0.1165
14.7800 4.9102 0.1040
14.8000 4.9169 0.1001
14.8200 4.9235 0.1113
14.8400 4.9302 0.1083
14.8600 4.9368 0.1019
14.8800 4.9435 0.1150
14.9000 4.9502 0.1024
14.9200 4.9569 0.1033
14.9400 4.9636 0.1132
14.9600 4.9703 0.0977
14.9800 4.9770 0.1066
15.0000 4.9836 0.1058
15.0200 4.9902 0.1005
15.0400 4.9968 0.1087
15.0600 5.0035 0.1005
15.0800 5.0102 0.1011
15.1000 5.0169 0.1088
15.1200 5.0236 0.0985
15.1400 5.0303 0.1040
15.1600 5.0369 0.1041
15.1800 5.0436 0.1001
15.2000 5.0502 0.1044
15.2200 5.0568 0.1107
15.2400 5.0635 0.0967
15.2600 5.0702 0.1056
15.2800 5.0769 0.1065
15.3000 5.0836 0.0990
15.3200 5.0902 0.1043
15.3400 5.0969 0.0990
15.3600 5.1036 0.0958
15.3800 5.1102 0.1033
15.4000 5.1168 0.0970
15.4200 5.1234 0.1065
15.4400 5.1301 0.1050
15.4600 5.1368 0.0979
15.4800 5.1435 0.1015
15.5000 5.1502 0.1031
15.5200 5.1569 0.1006
15.5400 5.1635 0.1019
15.5600 5.1701 0.0990
15.5800 5.1768 0.1000
15.6000 5.1835 0.1063
15.6200 5.1902 0.0975
15.6400 5.1969 0.1046
15.6600 5.2036 0.1008
15.6800 5.2103 0.1023
15.7000 5.2170 0.1015
15.7200 5.2236 0.0971
15.7400 5.2302 0.0993
15.7600 5.2369 0.1064
15.7800 5.2435 0.0979
15.8000 5.2502 0.1006
15.8200 5.2569 0.0992
15.8400 5.2636 0.0989
15.8600 5.2703 0.1038
15.8800 5.2770 0.0986
15.9000 5.2836 0.0966
15.9200 5.2902 0.1066
15.9400 5.2968 0.0986
15.9600 5.3035 0.0972
15.9800 5.3102 0.1036
16.0000 5.3169 0.0992
16.0200 5.3236 0.0981
16.0400 5.3302 0.1014
16.0600 5.3369 0.0956
16.0800 5.3436 0.1003
16.1000 5.3501 0.1028
16.1200 5.3568 0.0918
16.1400 5.3634 0.1057
16.1600 5.3702 0.1034
16.1800 5.3769 0.0970
16.2000 5.3836 0.0995
16.2200 5.3902 0.1017
16.2400 5.3969 0.1033
16.2600 5.4036 0.0981
16.2800 5.4102 0.0937
16.3000 5.4168 0.1029
16.3200 5.4235 0.1028
16.3400 5.4302 0.0966
16.3600 5.4369 0.0980
16.3800 5.4436 0.1092
16.4000 5.4503 0.0946
16.4200 5.4570 0.1010
16.4400 5.4636 0.1003
16.4600 5.4702 0.0953
16.4800 5.4768 0.1042
16.5000 5.4834 0.0977
16.5200 5.4902 0.0963
16.5400 5.4969 0.1070
16.5600 5.5036 0.0982
16.5800 5.5103 0.0900
16.6000 5.5169 0.1055
16.6200 5.5236 0.0970
16.6400 5.5302 0.0955
16.6600 5.5368 0.1067
16.6800 5.5434 0.0994
16.7000 5.5502 0.0967
16.7200 5.5569 0.1041
16.7400 5.5636 0.0914
16.7600 5.5702 0.1001
16.7800 5.5769 0.1016
16.8000 5.5836 0.0962
16.8200 5.5902 0.0917
16.8400 5.5968 0.1045
16.8600 5.6035 0.0973
16.8800 5.6101 0.0956
16.9000 5.6168 0.0989
16.9200 5.6235 0.0968
16.9400 5.6302 0.1003
16.9600 5.6369 0.1002
16.9800 5.6436 0.0970
17.0000 5.6502 0.0974
17.0200 5.6568 0.0975
17.0400 5.6635 0.1034
17.0600 5.6702 0.0969
17.0800 5.6769 0.0973
17.1000 5.6836 0.1038
17.1200 5.6903 0.0902
17.1400 5.6969 0.1003
17.1600 5.7036 0.1022
17.1800 5.7102 0.0907
17.2000 5.7168 0.0985
17.2200 5.7235 0.1044
17.2400 5.7302 0.0944
17.2600 5.7369 0.1031
17.2800 5.7436 0.1017
17.3000 5.7502 0.0935
17.3200 5.7569 0.1014
17.3400 5.7636 0.0995
17.3600 5.7702 0.0906
17.3800 5.7768 0.1038
17.4000 5.7834 0.0979
17.4200 5.7901 0.0982
17.4400 5.7968 0.0990
17.4600 5.8035 0.0916
17.4800 5.8102 0.0965
17.5000 5.8169 0.1018
17.5200 5.8236 0.0929
17.5400 5.8302 0.1001
17.5600 5.8368 0.1002
17.5800 5.8434 0.0952
17.6000 5.8501 0.1009
17.6200 5.8568 0.1007
17.6400 5.8635 0.0930
17.6600 5.8702 0.0997
17.6800 5.8769 0.1002
17.7000 5.8836 0.0901
17.7200 5.8902 0.1010
17.7400 5.8968 0.0960
17.7600 5.9035 0.1008
