Raw Data
Time Displacement Force
(s) (mm) (N)
0.0000 0.0000 -0.0094
0.0200 0.0001 0.0191
0.0400 0.0020 0.0750
0.0600 0.0094 0.0672
0.0800 0.0211 -0.0031
0.1000 0.0335 -0.0097
0.1200 0.0461 0.0289
0.1400 0.0596 0.0048
0.1600 0.0737 -0.0066
0.1800 0.0880 0.0096
0.2000 0.1019 -0.0093
0.2200 0.1155 -0.0123
0.2400 0.1288 0.0127
0.2600 0.1421 -0.0061
0.2800 0.1554 0.0024
0.3000 0.1688 0.0061
0.3200 0.1822 -0.0069
0.3400 0.1955 0.0079
0.3600 0.2089 0.0018
0.3800 0.2223 -0.0042
0.4000 0.2356 0.0120
0.4200 0.2489 0.0047
0.4400 0.2623 -0.0044
0.4600 0.2756 0.0079
0.4800 0.2889 0.0049
0.5000 0.3023 -0.0023
0.5200 0.3156 0.0097
0.5400 0.3289 0.0029
0.5600 0.3422 -0.0001
0.5800 0.3556 0.0104
0.6000 0.3689 -0.0013
0.6200 0.3822 0.0046
0.6400 0.3956 0.0102
0.6600 0.4089 -0.0025
0.6800 0.4222 0.0035
0.7000 0.4355 0.0067
0.7200 0.4488 0.0048
0.7400 0.4622 0.0092
0.7600 0.4756 0.0025
0.7800 0.4889 0.0053
0.8000 0.5023 0.0074
0.8200 0.5156 0.0056
0.8400 0.5290 0.0022
0.8600 0.5424 0.0089
0.8800 0.5556 0.0049
0.9000 0.5689 0.0078
0.9200 0.5822 0.0085
0.9400 0.5956 0.0047
0.9600 0.6089 0.0043
0.9800 0.6222 0.0083
1.0000 0.6355 0.0054
1.0200 0.6488 0.0107
1.0400 0.6622 0.0061
1.0600 0.6756 0.0026
1.0800 0.6889 0.0144
1.1000 0.7023 0.0052
1.1200 0.7157 0.0007
1.1400 0.7290 0.0141
1.1600 0.7423 0.0066
1.1800 0.7556 0.0052
1.2000 0.7690 0.0172
1.2200 0.7823 0.0041
1.2400 0.7956 0.0060
1.2600 0.8089 0.0195
1.2800 0.8222 0.0028
1.3000 0.8356 0.0065
1.3200 0.8489 0.0199
1.3400 0.8622 0.0077
1.3600 0.8755 0.0095
1.3800 0.8889 0.0158
1.4000 0.9022 0.0070
1.4200 0.9155 0.0129
1.4400 0.9289 0.0155
1.4600 0.9423 0.0073
1.4800 0.9556 0.0152
1.5000 0.9690 0.0151
1.5200 0.9823 0.0076
1.5400 0.9956 0.0149
1.5600 1.0089 0.0149
1.5800 1.0223 0.0108
1.6000 1.0356 0.0131
1.6200 1.0489 0.0169
1.6400 1.0622 0.0160
1.6600 1.0755 0.0095
1.6800 1.0889 0.0202
1.7000 1.1022 0.0176
1.7200 1.1156 0.0099
1.7400 1.1289 0.0163
1.7600 1.1423 0.0184
1.7800 1.1556 0.0076
1.8000 1.1689 0.0201
1.8200 1.1823 0.0178
1.8400 1.1956 0.0133
1.8600 1.2090 0.0257
1.8800 1.2223 0.0181
1.9000 1.2356 0.0190
1.9200 1.2489 0.0249
1.9400 1.2623 0.0167
1.9600 1.2756 0.0209
1.9800 1.2889 0.0308
2.0000 1.3023 0.0167
2.0200 1.3156 0.0231
2.0400 1.3289 0.0294
2.0600 1.3422 0.0157
2.0800 1.3556 0.0335
2.1000 1.3689 0.0293
2.1200 1.3822 0.0229
2.1400 1.3955 0.0380
2.1600 1.4089 0.0317
2.1800 1.4222 0.0251
2.2000 1.4356 0.0382
2.2200 1.4489 0.0293
2.2400 1.4623 0.0308
2.2600 1.4756 0.0416
2.2800 1.4890 0.0332
2.3000 1.5023 0.0372
2.3200 1.5157 0.0431
2.3400 1.5290 0.0412
2.3600 1.5423 0.0485
2.3800 1.5556 0.0477
2.4000 1.5689 0.0482
2.4200 1.5822 0.0585
2.4400 1.5955 0.0527
2.4600 1.6089 0.0499
2.4800 1.6222 0.0632
2.5000 1.6355 0.0619
2.5200 1.6488 0.0589
2.5400 1.6622 0.0740
2.5600 1.6756 0.0635
2.5800 1.6890 0.0709
2.6000 1.7023 0.0788
2.6200 1.7156 0.0694
2.6400 1.7290 0.0851
2.6600 1.7423 0.0823
2.6800 1.7556 0.0816
2.7000 1.7689 0.0936
2.7200 1.7822 0.0914
2.7400 1.7956 0.0931
2.7600 1.8089 0.1008
2.7800 1.8222 0.1030
2.8000 1.8355 0.1002
2.8200 1.8489 0.1119
2.8400 1.8623 0.1110
2.8600 1.8756 0.1105
2.8800 1.8889 0.1232
2.9000 1.9022 0.1192
2.9200 1.9156 0.1250
2.9400 1.9289 0.1294
2.9600 1.9423 0.1308
2.9800 1.9556 0.1337
3.0000 1.9690 0.1381
3.0200 1.9823 0.1398
3.0400 1.9956 0.1386
3.0600 2.0089 0.1477
3.0800 2.0223 0.1521
3.1000 2.0356 0.1471
3.1200 2.0489 0.1576
3.1400 2.0622 0.1575
3.1600 2.0755 0.1576
3.1800 2.0889 0.1688
3.2000 2.1022 0.1663
3.2200 2.1156 0.1662
3.2400 2.1289 0.1779
3.2600 2.1423 0.1759
3.2800 2.1556 0.1713
3.3000 2.1690 0.1834
3.3200 2.1823 0.1862
3.3400 2.1956 0.1782
3.3600 2.2090 0.1957
3.3800 2.2223 0.1887
3.4000 2.2356 0.1935
3.4200 2.2489 0.1998
3.4400 2.2622 0.1965
3.4600 2.2756 0.2034
3.4800 2.2889 0.2099
3.5000 2.3022 0.2039
3.5200 2.3156 0.2100
3.5400 2.3289 0.2183
3.5600 2.3422 0.2086
3.5800 2.3556 0.2151
3.6000 2.3689 0.2258
3.6200 2.3823 0.2196
3.6400 2.3956 0.2257
3.6600 2.4090 0.2290
3.6800 2.4223 0.2271
3.7000 2.4356 0.2311
3.7200 2.4490 0.2367
3.7400 2.4623 0.2344
3.7600 2.4756 0.2386
3.7800 2.4889 0.2487
3.8000 2.5022 0.2427
3.8200 2.5156 0.2486
3.8400 2.5289 0.2523
3.8600 2.5422 0.2526
3.8800 2.5555 0.2541
3.9000 2.5689 0.2544
3.9200 2.5822 0.2620
3.9400 2.5956 0.2618
3.9600 2.6089 0.2578
3.9800 2.6222 0.2703
4.0000 2.6356 0.2686
4.0200 2.6490 0.2709
4.0400 2.6623 0.2734
4.0600 2.6756 0.2734
4.0800 2.6889 0.2753
4.1000 2.7023 0.2807
4.1200 2.7156 0.2795
4.1400 2.7290 0.2836
4.1600 2.7423 0.2915
4.1800 2.7556 0.2824
4.2000 2.7690 0.2887
4.2200 2.7822 0.2975
4.2400 2.7955 0.2892
4.2600 2.8088 0.2996
4.2800 2.8222 0.2989
4.3000 2.8355 0.2947
4.3200 2.8488 0.3064
4.3400 2.8622 0.3054
4.3600 2.8756 0.3040
4.3800 2.8890 0.3111
4.4000 2.9023 0.3099
4.4200 2.9156 0.3110
4.4400 2.9290 0.3175
4.4600 2.9423 0.3155
4.4800 2.9556 0.3142
4.5000 2.9689 0.3290
4.5200 2.9822 0.3199
4.5400 2.9956 0.3228
4.5600 3.0089 0.3337
4.5800 3.0222 0.3207
4.6000 3.0355 0.3315
4.6200 3.0488 0.3360
4.6400 3.0622 0.3279
4.6600 3.0755 0.3361
4.6800 3.0889 0.3438
4.7000 3.1022 0.3318
4.7200 3.1156 0.3398
4.7400 3.1290 0.3449
4.7600 3.1423 0.3387
4.7800 3.1557 0.3510
4.8000 3.1690 0.3484
4.8200 3.1824 0.3461
4.8400 3.1957 0.3555
4.8600 3.2089 0.3482
4.8800 3.2222 0.3536
4.9000 3.2355 0.3564
4.9200 3.2489 0.3576
4.9400 3.2622 0.3600
4.9600 3.2755 0.3651
4.9800 3.2888 0.3616
5.0000 3.3022 0.3631
5.0200 3.3156 0.3659
5.0400 3.3289 0.3640
5.0600 3.3422 0.3745
5.0800 3.3556 0.3684
5.1000 3.3690 0.3671
5.1200 3.3823 0.3821
5.1400 3.3956 0.3737
5.1600 3.4089 0.3788
5.1800 3.4223 0.3820
5.2000 3.4356 0.3774
5.2200 3.4490 0.3858
5.2400 3.4623 0.3858
5.2600 3.4756 0.3866
5.2800 3.4889 0.3852
5.3000 3.5022 0.3921
5.3200 3.5155 0.3909
5.3400 3.5288 0.3933
5.3600 3.5422 0.3968
5.3800 3.5556 0.3965
5.4000 3.5689 0.3991
5.4200 3.5823 0.4013
5.4400 3.5956 0.4041
5.4600 3.6090 0.4031
5.4800 3.6223 0.4044
5.5000 3.6356 0.4100
5.5200 3.6490 0.4072
5.5400 3.6623 0.4114
5.5600 3.6756 0.4136
5.5800 3.6889 0.4158
5.6000 3.7022 0.4181
5.6200 3.7156 0.4178
5.6400 3.7289 0.4189
5.6600 3.7422 0.4235
5.6800 3.7556 0.4259
5.7000 3.7689 0.4245
5.7200 3.7822 0.4266
5.7400 3.7956 0.4295
5.7600 3.8089 0.4317
5.7800 3.8222 0.4324
5.8000 3.8356 0.4301
5.8200 3.8489 0.4385
5.8400 3.8623 0.4365
5.8600 3.8756 0.4385
5.8800 3.8889 0.4441
5.9000 3.9023 0.4407
5.9200 3.9157 0.4393
5.9400 3.9290 0.4455
5.9600 3.9423 0.4531
5.9800 3.9556 0.4506
6.0000 3.9689 0.4499
6.0200 3.9822 0.4544
6.0400 3.9956 0.4507
6.0600 4.0089 0.4557
6.0800 4.0222 0.4654
6.1000 4.0356 0.4554
6.1200 4.0489 0.4590
6.1400 4.0622 0.4623
6.1600 4.0756 0.4619
6.1800 4.0890 0.4666
6.2000 4.1023 0.4670
6.2200 4.1156 0.4641
6.2400 4.1289 0.4728
6.2600 4.1423 0.4685
6.2800 4.1556 0.4747
6.3000 4.1689 0.4765
6.3200 4.1823 0.4687
6.3400 4.1956 0.4840
6.3600 4.2090 0.4824
6.3800 4.2223 0.4740
6.4000 4.2355 0.4903
6.4200 4.2488 0.4837
6.4400 4.2622 0.4782
6.4600 4.2755 0.4920
6.4800 4.2888 0.4887
6.5000 4.3022 0.4890
6.5200 4.3156 0.4964
6.5400 4.3290 0.4922
6.5600 4.3424 0.4873
6.5800 4.3557 0.5039
6.6000 4.3690 0.4947
6.6200 4.3823 0.4980
6.6400 4.3957 0.5086
6.6600 4.4089 0.4961
6.6800 4.4222 0.5023
6.7000 4.4355 0.5114
6.7200 4.4489 0.4986
6.7400 4.4622 0.5032
6.7600 4.4755 0.5184
6.7800 4.4889 0.5037
6.8000 4.5022 0.5117
6.8200 4.5156 0.5215
6.8400 4.5289 0.5077
6.8600 4.5423 0.5175
6.8800 4.5556 0.5233
6.9000 4.5690 0.5148
6.9200 4.5823 0.5212
6.9400 4.5956 0.5270
6.9600 4.6089 0.5192
6.9800 4.6223 0.5280
7.0000 4.6356 0.5291
7.0200 4.6489 0.5227
7.0400 4.6622 0.5297
7.0600 4.6756 0.5363
7.0800 4.6889 0.5252
7.1000 4.7022 0.5385
7.1200 4.7155 0.5369
7.1400 4.7289 0.5282
7.1600 4.7422 0.5448
7.1800 4.7556 0.5375
7.2000 4.7689 0.5336
7.2200 4.7823 0.5465
7.2400 4.7956 0.5442
7.2600 4.8090 0.5351
7.2800 4.8223 0.5467
7.3000 4.8356 0.5518
7.3200 4.8489 0.5389
7.3400 4.8623 0.5548
7.3600 4.8756 0.5514
7.3800 4.8889 0.5439
7.4000 4.9022 0.5620
7.4200 4.9156 0.5557
7.4400 4.9289 0.5514
7.4600 4.9423 0.5610
7.4800 4.9555 0.5624
7.5000 4.9689 0.5572
7.5200 4.9822 0.5644
7.5400 4.9956 0.5653
7.5600 5.0089 0.5641
7.5800 5.0222 0.5647
7.6000 5.0356 0.5704
7.6200 5.0490 0.5653
7.6400 5.0623 0.5688
7.6600 5.0756 0.5717
7.6800 5.0890 0.5687
7.7000 5.1023 0.5733
7.7200 5.1157 0.5788
7.7400 5.1289 0.5696
7.7600 5.1422 0.5760
7.7800 5.1556 0.5851
7.8000 5.1689 0.5749
7.8200 5.1822 0.5778
7.8400 5.1956 0.5899
7.8600 5.2089 0.5791
7.8800 5.2222 0.5832
7.9000 5.2356 0.5917
7.9200 5.2489 0.5802
7.9400 5.2622 0.5921
7.9600 5.2756 0.5936
7.9800 5.2890 0.5848
8.0000 5.3023 0.5930
8.0200 5.3156 0.5957
8.0400 5.3289 0.5915
8.0600 5.3423 0.5941
8.0800 5.3557 0.5945
8.1000 5.3690 0.5931
8.1200 5.3823 0.6025
8.1400 5.3956 0.5997
8.1600 5.4089 0.6023
8.1800 5.4223 0.6060
8.2000 5.4356 0.6066
8.2200 5.4489 0.5994
8.2400 5.4622 0.6122
8.2600 5.4755 0.6137
8.2800 5.4889 0.6056
8.3000 5.5022 0.6154
8.3200 5.5156 0.6143
8.3400 5.5290 0.6086
8.3600 5.5423 0.6113
8.3800 5.5556 0.6174
8.4000 5.5689 0.6143
8.4200 5.5823 0.6154
8.4400 5.5956 0.6204
8.4600 5.6090 0.6174
8.4800 5.6222 0.6206
8.5000 5.6356 0.6271
8.5200 5.6489 0.6216
8.5400 5.6622 0.6247
8.5600 5.6755 0.6275
8.5800 5.6888 0.6267
8.6000 5.7022 0.6300
8.6200 5.7155 0.6299
8.6400 5.7289 0.6249
8.6600 5.7422 0.6339
8.6800 5.7556 0.6383
8.7000 5.7689 0.6258
8.7200 5.7823 0.6364
8.7400 5.7956 0.6446
8.7600 5.8090 0.6314
8.7800 5.8223 0.6394
8.8000 5.8357 0.6393
8.8200 5.8489 0.6374
8.8400 5.8622 0.6469
8.8600 5.8755 0.6459
8.8800 5.8889 0.6402
8.9000 5.9022 0.6492
8.9200 5.9155 0.6498
8.9400 5.9289 0.6445
8.9600 5.9422 0.6521
8.9800 5.9556 0.6489
9.0000 5.9690 0.6465
9.0200 5.9823 0.6568
9.0400 5.9956 0.6483
9.0600 6.0090 0.6510
9.0800 6.0223 0.6576
9.1000 6.0356 0.6535
9.1200 6.0489 0.6555
9.1400 6.0622 0.6601
9.1600 6.0756 0.6585
9.1800 6.0890 0.6548
9.2000 6.1023 0.6688
9.2200 6.1156 0.6630
9.2400 6.1290 0.6586
9.2600 6.1423 0.6667
9.2800 6.1556 0.6670
9.3000 6.1689 0.6638
9.3200 6.1822 0.6718
9.3400 6.1956 0.6695
9.3600 6.2089 0.6694
9.3800 6.2222 0.6708
9.4000 6.2355 0.6730
9.4200 6.2489 0.6736
9.4400 6.2623 0.6757
9.4600 6.2756 0.6733
9.4800 6.2889 0.6745
9.5000 6.3023 0.6790
9.5200 6.3156 0.6713
9.5400 6.3290 0.6767
9.5600 6.3423 0.6897
9.5800 6.3556 0.6777
9.6000 6.3689 0.6818
9.6200 6.3823 0.6874
9.6400 6.3956 0.6783
9.6600 6.4089 0.6831
9.6800 6.4222 0.6970
9.7000 6.4355 0.6758
9.7200 6.4489 0.6890
9.7400 6.4622 0.7006
9.7600 6.4755 0.6852
9.7800 6.4889 0.6921
9.8000 6.5023 0.6942
9.8200 6.5156 0.6858
9.8400 6.5290 0.6972
9.8600 6.5423 0.6980
9.8800 6.5557 0.6892
9.9000 6.5690 0.6990
9.9200 6.5823 0.7013
9.9400 6.5956 0.6936
9.9600 6.6089 0.7045
9.9800 6.6222 0.7018
10.0000 6.6356 0.7002
10.0200 6.6489 0.7063
10.0400 6.6622 0.7030
10.0600 6.6756 0.7051
10.0800 6.6889 0.7094
10.1000 6.7022 0.7054
10.1200 6.7156 0.7069
10.1400 6.7289 0.7104
10.1600 6.7423 0.7112
10.1800 6.7556 0.7041
10.2000 6.7690 0.7142
10.2200 6.7823 0.7150
10.2400 6.7957 0.7081
10.2600 6.8090 0.7215
10.2800 6.8223 0.7143
10.3000 6.8356 0.7164
10.3200 6.8489 0.7164
10.3400 6.8623 0.7174
10.3600 6.8756 0.7156
10.3800 6.8889 0.7227
10.4000 6.9022 0.7234
10.4200 6.9155 0.7183
10.4400 6.9289 0.7290
10.4600 6.9422 0.7236
10.4800 6.9556 0.7206
10.5000 6.9690 0.7292
10.5200 6.9823 0.7221
10.5400 6.9957 0.7257
10.5600 7.0090 0.7353
10.5800 7.0223 0.7322
10.6000 7.0356 0.7278
10.6200 7.0490 0.7362
10.6400 7.0623 0.7327
10.6600 7.0756 0.7281
10.6800 7.0889 0.7419
10.7000 7.1023 0.7294
10.7200 7.1156 0.7358
10.7400 7.1289 0.7478
10.7600 7.1422 0.7348
10.7800 7.1556 0.7384
10.8000 7.1689 0.7501
10.8200 7.1822 0.7359
10.8400 7.1956 0.7423
10.8600 7.2089 0.7480
10.8800 7.2223 0.7415
10.9000 7.2356 0.7431
10.9200 7.2489 0.7471
10.9400 7.2623 0.7421
10.9600 7.2756 0.7514
10.9800 7.2890 0.7507
11.0000 7.3023 0.7469
11.0200 7.3156 0.7525
11.0400 7.3289 0.7506
11.0600 7.3422 0.7525
11.0800 7.3556 0.7508
11.1000 7.3689 0.7541
11.1200 7.3822 0.7544
11.1400 7.3956 0.7519
11.1600 7.4089 0.7571
11.1800 7.4222 0.7568
11.2000 7.4356 0.7574
11.2200 7.4489 0.7580
11.2400 7.4622 0.7612
11.2600 7.4756 0.7553
11.2800 7.4889 0.7671
11.3000 7.5022 0.7658
11.3200 7.5156 0.7583
11.3400 7.5290 0.7657
11.3600 7.5423 0.7669
11.3800 7.5556 0.7610
11.4000 7.5690 0.7746
11.4200 7.5823 0.7673
11.4400 7.5956 0.7605
11.4600 7.6089 0.7759
11.4800 7.6222 0.7693
11.5000 7.6355 0.7691
11.5200 7.6489 0.7766
11.5400 7.6622 0.7699
11.5600 7.6755 0.7690
11.5800 7.6889 0.7780
11.6000 7.7023 0.7722
11.6200 7.7157 0.7770
11.6400 7.7290 0.7745
11.6600 7.7423 0.7745
11.6800 7.7557 0.7787
11.7000 7.7690 0.7774
11.7200 7.7823 0.7826
11.7400 7.7956 0.7813
11.7600 7.8089 0.7780
11.7800 7.8223 0.7826
11.8000 7.8356 0.7825
11.8200 7.8489 0.7837
11.8400 7.8622 0.7852
11.8600 7.8755 0.7811
11.8800 7.8889 0.7825
11.9000 7.9022 0.7902
11.9200 7.9156 0.7844
11.9400 7.9289 0.7862
11.9600 7.9423 0.7944
11.9800 7.9557 0.7841
12.0000 7.9690 0.7880
12.0200 7.9823 0.7938
12.0400 7.9956 0.7903
12.0600 8.0090 0.7996
12.0800 8.0223 0.7929
12.1000 8.0356 0.7898
12.1200 8.0489 0.7998
12.1400 8.0622 0.7982
12.1600 8.0755 0.7912
12.1800 8.0889 0.7999
12.2000 8.1022 0.7953
12.2200 8.1155 0.7949
12.2400 8.1289 0.8057
12.2600 8.1422 0.7985
12.2800 8.1556 0.8013
12.3000 8.1689 0.8024
12.3200 8.1823 0.7981
12.3400 8.1957 0.8057
12.3600 8.2090 0.8048
12.3800 8.2223 0.8025
12.4000 8.2356 0.8100
12.4200 8.2490 0.8035
12.4400 8.2623 0.8034
12.4600 8.2756 0.8096
12.4800 8.2889 0.8091
12.5000 8.3023 0.8091
12.5200 8.3156 0.8097
12.5400 8.3289 0.8144
12.5600 8.3422 0.8104
12.5800 8.3555 0.8073
12.6000 8.3689 0.8158
12.6200 8.3822 0.8121
12.6400 8.3956 0.8094
12.6600 8.4089 0.8176
12.6800 8.4223 0.8159
12.7000 8.4357 0.8102
12.7200 8.4490 0.8234
12.7400 8.4623 0.8167
12.7600 8.4756 0.8149
12.7800 8.4890 0.8238
12.8000 8.5023 0.8168
12.8200 8.5155 0.8200
12.8400 8.5289 0.8255
12.8600 8.5422 0.8204
12.8800 8.5556 0.8206
12.9000 8.5689 0.8260
12.9200 8.5822 0.8211
12.9400 8.5956 0.8245
12.9600 8.6089 0.8260
12.9800 8.6222 0.8207
13.0000 8.6356 0.8337
13.0200 8.6489 0.8269
13.0400 8.6623 0.8211
13.0600 8.6756 0.8320
13.0800 8.6890 0.8298
13.1000 8.7023 0.8291
13.1200 8.7156 0.8315
13.1400 8.7290 0.8320
13.1600 8.7423 0.8279
13.1800 8.7556 0.8381
13.2000 8.7689 0.8312
13.2200 8.7823 0.8318
13.2400 8.7956 0.8399
13.2600 8.8089 0.8326
13.2800 8.8222 0.8352
13.3000 8.8355 0.8381
13.3200 8.8489 0.8371
13.3400 8.8623 0.8396
13.3600 8.8756 0.8340
13.3800 8.8889 0.8382
13.4000 8.9023 0.8421
13.4200 8.9156 0.8362
13.4400 8.9290 0.8406
13.4600 8.9423 0.8466
13.4800 8.9556 0.8387
13.5000 8.9690 0.8430
13.5200 8.9823 0.8471
13.5400 8.9956 0.8394
13.5600 9.0089 0.8529
13.5800 9.0223 0.8529
13.6000 9.0356 0.8405
13.6200 9.0489 0.8562
13.6400 9.0622 0.8474
13.6600 9.0755 0.8468
13.6800 9.0889 0.8563
13.7000 9.1022 0.8488
13.7200 9.1155 0.8469
13.7400 9.1289 0.8611
13.7600 9.1423 0.8490
13.7800 9.1557 0.8468
13.8000 9.1690 0.8635
13.8200 9.1823 0.8461
13.8400 9.1957 0.8574
13.8600 9.2090 0.8582
13.8800 9.2223 0.8502
13.9000 9.2356 0.8637
13.9200 9.2489 0.8629
13.9400 9.2622 0.8536
13.9600 9.2755 0.8623
13.9800 9.2888 0.8653
14.0000 9.3022 0.8586
14.0200 9.3156 0.8628
14.0400 9.3289 0.8652
14.0600 9.3423 0.8568
14.0800 9.3556 0.8680
14.1000 9.3689 0.8638
14.1200 9.3823 0.8704
14.1400 9.3957 0.8636
14.1600 9.4090 0.8634
14.1800 9.4223 0.8747
14.2000 9.4356 0.8639
14.2200 9.4490 0.8682
14.2400 9.4623 0.8714
14.2600 9.4756 0.8680
14.2800 9.4889 0.8745
14.3000 9.5022 0.8727
14.3200 9.5156 0.8710
14.3400 9.5289 0.8739
14.3600 9.5422 0.8734
14.3800 9.5555 0.8727
14.4000 9.5689 0.8790
14.4200 9.5823 0.8707
14.4400 9.5956 0.8759
14.4600 9.6089 0.8790
14.4800 9.6223 0.8674
14.5000 9.6357 0.8786
14.5200 9.6490 0.8787
14.5400 9.6622 0.8722
14.5600 9.6756 0.8829
14.5800 9.6889 0.8819
14.6000 9.7023 0.8714
14.6200 9.7156 0.8841
14.6400 9.7289 0.8839
14.6600 9.7423 0.8726
14.6800 9.7556 0.8873
14.7000 9.7689 0.8818
14.7200 9.7822 0.8777
14.7400 9.7955 0.8918
14.7600 9.8089 0.8815
14.7800 9.8223 0.8760
14.8000 9.8356 0.8904
14.8200 9.8489 0.8859
14.8400 9.8623 0.8775
14.8600 9.8757 0.8923
14.8800 9.8890 0.8869
14.9000 9.9023 0.8781
14.9200 9.9156 0.8957
14.9400 9.9290 0.8901
14.9600 9.9423 0.8820
14.9800 9.9556 0.8993
15.0000 9.9689 0.8907
15.0200 9.9822 0.8857
15.0400 9.9956 0.8972
15.0600 10.0089 0.8916
15.0800 10.0222 0.8893
15.1000 10.0355 0.9010
15.1200 10.0489 0.8932
15.1400 10.0622 0.8901
15.1600 10.0756 0.9043
15.1800 10.0889 0.8917
15.2000 10.1023 0.8919
15.2200 10.1156 0.9097
15.2400 10.1290 0.8882
15.2600 10.1423 0.9002
15.2800 10.1556 0.9128
15.3000 10.1690 0.8897
15.3200 10.1823 0.9008
15.3400 10.1956 0.9131
15.3600 10.2089 0.8956
15.3800 10.2223 0.9046
15.4000 10.2356 0.9113
15.4200 10.2489 0.8960
15.4400 10.2622 0.9126
15.4600 10.2755 0.9105
15.4800 10.2889 0.9033
15.5000 10.3022 0.9122
15.5200 10.3156 0.9073
15.5400 10.3289 0.9041
15.5600 10.3423 0.9136
15.5800 10.3557 0.9083
15.6000 10.3690 0.9066
15.6200 10.3823 0.9163
15.6400 10.3956 0.9179
15.6600 10.4090 0.9135
15.6800 10.4223 0.9111
15.7000 10.4356 0.9193
15.7200 10.4489 0.9152
15.7400 10.4622 0.9156
15.7600 10.4756 0.9188
15.7800 10.4889 0.9154
15.8000 10.5022 0.9208
15.8200 10.5155 0.9154
15.8400 10.5289 0.9146
15.8600 10.5422 0.9221
15.8800 10.5555 0.9241
15.9000 10.5689 0.9145
15.9200 10.5823 0.9217
15.9400 10.5956 0.9252
15.9600 10.6090 0.9168
15.9800 10.6223 0.9234
16.0000 10.6356 0.9248
16.0200 10.6490 0.9189
16.0400 10.6623 0.9312
16.0600 10.6756 0.9270
16.0800 10.6889 0.9250
16.1000 10.7022 0.9308
16.1200 10.7155 0.9291
16.1400 10.7289 0.9258
16.1600 10.7422 0.9314
16.1800 10.7555 0.9332
16.2000 10.7689 0.9236
16.2200 10.7823 0.9338
16.2400 10.7956 0.9329
16.2600 10.8089 0.9296
16.2800 10.8223 0.9359
16.3000 10.8356 0.9380
16.3200 10.8490 0.9267
16.3400 10.8623 0.9329
16.3600 10.8756 0.9406
16.3800 10.8889 0.9289
16.4000 10.9023 0.9392
16.4200 10.9156 0.9425
16.4400 10.9289 0.9304
16.4600 10.9423 0.9415
16.4800 10.9556 0.9392
16.5000 10.9690 0.9376
16.5200 10.9822 0.9428
16.5400 10.9956 0.9397
16.5600 11.0089 0.9374
16.5800 11.0222 0.9460
16.6000 11.0356 0.9450
16.6200 11.0489 0.9444
16.6400 11.0622 0.9467
16.6600 11.0756 0.9398
16.6800 11.0889 0.9419
16.7000 11.1023 0.9483
16.7200 11.1156 0.9448
16.7400 11.1290 0.9433
16.7600 11.1423 0.9500
16.7800 11.1556 0.9445
16.8000 11.1689 0.9482
16.8200 11.1823 0.9565
16.8400 11.1956 0.9453
16.8600 11.2090 0.9494
16.8800 11.2222 0.9538
16.9000 11.2355 0.9480
16.9200 11.2488 0.9564
16.9400 11.2622 0.9511
16.9600 11.2755 0.9507
16.9800 11.2889 0.9545
17.0000 11.3022 0.9534
17.0200 11.3156 0.9544
17.0400 11.3290 0.9561
17.0600 11.3423 0.9547
17.0800 11.3556 0.9545
17.1000 11.3690 0.9571
17.1200 11.3823 0.9605
17.1400 11.3956 0.9577
17.1600 11.4089 0.9589
17.1800 11.4222 0.9592
17.2000 11.4356 0.9590
17.2200 11.4489 0.9575
17.2400 11.4622 0.9651
17.2600 11.4755 0.9576
17.2800 11.4889 0.9632
17.3000 11.5023 0.9644
17.3200 11.5156 0.9624
17.3400 11.5289 0.9635
17.3600 11.5423 0.9715
17.3800 11.5556 0.9631
17.4000 11.5690 0.9636
17.4200 11.5823 0.9689
17.4400 11.5956 0.9621
17.4600 11.6090 0.9670
17.4800 11.6223 0.9740
17.5000 11.6356 0.9641
17.5200 11.6489 0.9699
17.5400 11.6623 0.9749
17.5600 11.6756 0.9627
17.5800 11.6889 0.9732
17.6000 11.7022 0.9785
17.6200 11.7155 0.9683
