Raw Data
Time Displacement Force
(s) (mm) (N)
0.0000 0.0000 0.0039
0.0200 0.0001 0.0020
0.0400 0.0020 0.0703
0.0600 0.0094 0.0820
0.0800 0.0211 -0.0208
0.1000 0.0335 -0.0076
0.1200 0.0461 0.0371
0.1400 0.0596 -0.0100
0.1600 0.0737 -0.0068
0.1800 0.0879 0.0148
0.2000 0.1019 -0.0193
0.2200 0.1155 -0.0058
0.2400 0.1288 0.0181
0.2600 0.1421 -0.0125
0.2800 0.1554 0.0021
0.3000 0.1688 0.0160
0.3200 0.1821 -0.0141
0.3400 0.1955 0.0052
0.3600 0.2089 0.0086
0.3800 0.2222 -0.0060
0.4000 0.2356 0.0034
0.4200 0.2489 0.0094
0.4400 0.2622 -0.0038
0.4600 0.2756 0.0003
0.4800 0.2889 0.0079
0.5000 0.3022 -0.0045
0.5200 0.3155 0.0035
0.5400 0.3288 0.0114
0.5600 0.3422 -0.0030
0.5800 0.3556 -0.0008
0.6000 0.3689 0.0087
0.6200 0.3822 0.0075
0.6400 0.3955 -0.0013
0.6600 0.4089 0.0122
0.6800 0.4222 0.0040
0.7000 0.4355 -0.0012
0.7200 0.4488 0.0089
0.7400 0.4622 0.0074
0.7600 0.4756 0.0028
0.7800 0.4889 0.0088
0.8000 0.5022 0.0076
0.8200 0.5156 0.0033
0.8400 0.5290 0.0067
0.8600 0.5423 0.0046
0.8800 0.5556 0.0042
0.9000 0.5689 0.0100
0.9200 0.5822 0.0029
0.9400 0.5955 0.0029
0.9600 0.6088 0.0086
0.9800 0.6221 0.0035
1.0000 0.6354 0.0011
1.0200 0.6488 0.0108
1.0400 0.6622 0.0051
1.0600 0.6755 0.0028
1.0800 0.6889 0.0094
1.1000 0.7023 0.0035
1.1200 0.7156 0.0116
1.1400 0.7289 0.0099
1.1600 0.7422 0.0021
1.1800 0.7556 0.0107
1.2000 0.7689 0.0094
1.2200 0.7823 0.0026
1.2400 0.7956 0.0100
1.2600 0.8089 0.0125
1.2800 0.8222 0.0079
1.3000 0.8356 0.0070
1.3200 0.8489 0.0081
1.3400 0.8622 0.0078
1.3600 0.8755 0.0108
1.3800 0.8888 0.0083
1.4000 0.9022 0.0114
1.4200 0.9155 0.0113
1.4400 0.9288 0.0072
1.4600 0.9422 0.0116
1.4800 0.9556 0.0116
1.5000 0.9690 0.0118
1.5200 0.9823 0.0108
1.5400 0.9956 0.0125
1.5600 1.0089 0.0138
1.5800 1.0222 0.0083
1.6000 1.0355 0.0103
1.6200 1.0488 0.0146
1.6400 1.0622 0.0129
1.6600 1.0755 0.0102
1.6800 1.0889 0.0139
1.7000 1.1022 0.0064
1.7200 1.1155 0.0098
1.7400 1.1289 0.0207
1.7600 1.1423 0.0074
1.7800 1.1556 0.0148
1.8000 1.1689 0.0137
1.8200 1.1823 0.0105
1.8400 1.1956 0.0105
1.8600 1.2089 0.0137
1.8800 1.2222 0.0143
1.9000 1.2355 0.0124
1.9200 1.2489 0.0184
1.9400 1.2623 0.0093
1.9600 1.2756 0.0148
1.9800 1.2889 0.0175
2.0000 1.3022 0.0091
2.0200 1.3156 0.0191
2.0400 1.3289 0.0145
2.0600 1.3422 0.0119
2.0800 1.3555 0.0173
2.1000 1.3689 0.0147
2.1200 1.3822 0.0141
2.1400 1.3955 0.0169
2.1600 1.4088 0.0169
2.1800 1.4222 0.0118
2.2000 1.4356 0.0191
2.2200 1.4489 0.0137
2.2400 1.4622 0.0155
2.2600 1.4756 0.0231
2.2800 1.4889 0.0097
2.3000 1.5023 0.0182
2.3200 1.5156 0.0253
2.3400 1.5289 0.0153
2.3600 1.5423 0.0190
2.3800 1.5556 0.0210
2.4000 1.5689 0.0137
2.4200 1.5822 0.0213
2.4400 1.5955 0.0237
2.4600 1.6088 0.0191
2.4800 1.6222 0.0240
2.5000 1.6355 0.0235
2.5200 1.6488 0.0161
2.5400 1.6622 0.0280
2.5600 1.6756 0.0224
2.5800 1.6889 0.0189
2.6000 1.7023 0.0288
2.6200 1.7156 0.0255
2.6400 1.7290 0.0264
2.6600 1.7423 0.0301
2.6800 1.7556 0.0302
2.7000 1.7689 0.0294
2.7200 1.7822 0.0350
2.7400 1.7956 0.0299
2.7600 1.8089 0.0279
2.7800 1.8222 0.0366
2.8000 1.8355 0.0327
2.8200 1.8489 0.0328
2.8400 1.8622 0.0388
2.8600 1.8755 0.0332
2.8800 1.8889 0.0405
2.9000 1.9022 0.0437
2.9200 1.9156 0.0359
2.9400 1.9289 0.0476
2.9600 1.9423 0.0479
2.9800 1.9556 0.0426
3.0000 1.9689 0.0476
3.0200 1.9823 0.0494
3.0400 1.9956 0.0477
3.0600 2.0089 0.0586
3.0800 2.0222 0.0543
3.1000 2.0356 0.0476
3.1200 2.0489 0.0624
3.1400 2.0622 0.0559
3.1600 2.0755 0.0589
3.1800 2.0888 0.0683
3.2000 2.1022 0.0628
3.2200 2.1155 0.0643
3.2400 2.1289 0.0691
3.2600 2.1422 0.0669
3.2800 2.1556 0.0669
3.3000 2.1690 0.0757
3.3200 2.1823 0.0697
3.3400 2.1956 0.0773
3.3600 2.2089 0.0805
3.3800 2.2223 0.0721
3.4000 2.2356 0.0812
3.4200 2.2489 0.0831
3.4400 2.2622 0.0791
3.4600 2.2756 0.0868
3.4800 2.2889 0.0830
3.5000 2.3022 0.0823
3.5200 2.3155 0.0864
3.5400 2.3289 0.0988
3.5600 2.3422 0.0849
3.5800 2.3555 0.0868
3.6000 2.3689 0.0987
3.6200 2.3822 0.0873
3.6400 2.3956 0.0972
3.6600 2.4090 0.1006
3.6800 2.4223 0.0951
3.7000 2.4356 0.1026
3.7200 2.4489 0.0986
3.7400 2.4623 0.0986
3.7600 2.4756 0.1073
3.7800 2.4889 0.1066
3.8000 2.5022 0.0974
3.8200 2.5155 0.1124
3.8400 2.5289 0.1066
3.8600 2.5422 0.1029
3.8800 2.5555 0.1181
3.9000 2.5688 0.1035
3.9200 2.5822 0.1156
3.9400 2.5955 0.1194
3.9600 2.6089 0.1078
3.9800 2.6222 0.1213
4.0000 2.6356 0.1207
4.0200 2.6489 0.1134
4.0400 2.6622 0.1223
4.0600 2.6755 0.1282
4.0800 2.6889 0.1170
4.1000 2.7023 0.1194
4.1200 2.7156 0.1315
4.1400 2.7289 0.1219
4.1600 2.7423 0.1296
4.1800 2.7556 0.1271
4.2000 2.7689 0.1193
4.2200 2.7822 0.1329
4.2400 2.7955 0.1368
4.2600 2.8088 0.1250
4.2800 2.8222 0.1320
4.3000 2.8355 0.1390
4.3200 2.8488 0.1258
4.3400 2.8622 0.1440
4.3600 2.8756 0.1397
4.3800 2.8890 0.1267
4.4000 2.9023 0.1478
4.4200 2.9156 0.1384
4.4400 2.9290 0.1357
4.4600 2.9423 0.1511
4.4800 2.9556 0.1430
4.5000 2.9689 0.1432
4.5200 2.9822 0.1480
4.5400 2.9955 0.1437
4.5600 3.0089 0.1491
4.5800 3.0222 0.1504
4.6000 3.0355 0.1512
4.6200 3.0488 0.1536
4.6400 3.0622 0.1468
4.6600 3.0755 0.1527
4.6800 3.0888 0.1550
4.7000 3.1022 0.1524
4.7200 3.1156 0.1570
4.7400 3.1290 0.1577
4.7600 3.1423 0.1526
4.7800 3.1556 0.1604
4.8000 3.1690 0.1589
4.8200 3.1823 0.1567
4.8400 3.1956 0.1651
4.8600 3.2089 0.1598
4.8800 3.2222 0.1579
4.9000 3.2355 0.1679
4.9200 3.2488 0.1603
4.9400 3.2621 0.1640
4.9600 3.2755 0.1716
4.9800 3.2888 0.1681
5.0000 3.3022 0.1650
5.0200 3.3156 0.1698
5.0400 3.3289 0.1637
5.0600 3.3422 0.1714
5.0800 3.3556 0.1777
5.1000 3.3689 0.1662
5.1200 3.3823 0.1736
5.1400 3.3956 0.1768
5.1600 3.4089 0.1693
5.1800 3.4223 0.1769
5.2000 3.4356 0.1787
5.2200 3.4489 0.1731
5.2400 3.4622 0.1764
5.2600 3.4756 0.1804
5.2800 3.4889 0.1758
5.3000 3.5022 0.1811
5.3200 3.5155 0.1847
5.3400 3.5288 0.1723
5.3600 3.5422 0.1801
5.3800 3.5555 0.1870
5.4000 3.5689 0.1835
5.4200 3.5822 0.1825
5.4400 3.5956 0.1842
5.4600 3.6090 0.1849
5.4800 3.6223 0.1825
5.5000 3.6356 0.1923
5.5200 3.6489 0.1866
5.5400 3.6623 0.1871
5.5600 3.6756 0.1939
5.5800 3.6889 0.1900
5.6000 3.7022 0.1911
5.6200 3.7155 0.1971
5.6400 3.7289 0.1952
5.6600 3.7422 0.1903
5.6800 3.7555 0.1993
5.7000 3.7689 0.1996
5.7200 3.7822 0.1943
5.7400 3.7955 0.1979
5.7600 3.8089 0.2000
5.7800 3.8222 0.1950
5.8000 3.8356 0.1999
5.8200 3.8489 0.2024
5.8400 3.8623 0.1971
5.8600 3.8756 0.2052
5.8800 3.8889 0.2023
5.9000 3.9023 0.1999
5.9200 3.9156 0.2074
5.9400 3.9289 0.2043
5.9600 3.9422 0.2039
5.9800 3.9555 0.2080
6.0000 3.9689 0.2062
6.0200 3.9822 0.2039
6.0400 3.9955 0.2170
6.0600 4.0088 0.2085
6.0800 4.0222 0.2070
6.1000 4.0355 0.2158
6.1200 4.0489 0.2093
6.1400 4.0622 0.2143
6.1600 4.0756 0.2145
6.1800 4.0889 0.2144
6.2000 4.1023 0.2157
6.2200 4.1156 0.2161
6.2400 4.1289 0.2141
6.2600 4.1423 0.2168
6.2800 4.1556 0.2198
6.3000 4.1689 0.2144
6.3200 4.1822 0.2248
6.3400 4.1956 0.2201
6.3600 4.2089 0.2165
6.3800 4.2222 0.2256
6.4000 4.2355 0.2190
6.4200 4.2488 0.2186
6.4400 4.2621 0.2288
6.4600 4.2755 0.2243
6.4800 4.2888 0.2227
6.5000 4.3022 0.2252
6.5200 4.3156 0.2230
6.5400 4.3290 0.2277
6.5600 4.3423 0.2229
6.5800 4.3556 0.2304
6.6000 4.3690 0.2259
6.6200 4.3823 0.2268
6.6400 4.3956 0.2325
6.6600 4.4089 0.2251
6.6800 4.4222 0.2288
6.7000 4.4355 0.2392
6.7200 4.4489 0.2234
6.7400 4.4622 0.2345
6.7600 4.4755 0.2387
6.7800 4.4888 0.2274
6.8000 4.5022 0.2386
6.8200 4.5156 0.2359
6.8400 4.5289 0.2314
6.8600 4.5422 0.2385
6.8800 4.5556 0.2372
6.9000 4.5689 0.2349
6.9200 4.5823 0.2385
6.9400 4.5956 0.2368
6.9600 4.6089 0.2394
6.9800 4.6222 0.2435
7.0000 4.6356 0.2321
7.0200 4.6489 0.2434
7.0400 4.6622 0.2449
7.0600 4.6755 0.2328
7.0800 4.6889 0.2485
7.1000 4.7022 0.2457
7.1200 4.7155 0.2379
7.1400 4.7288 0.2511
7.1600 4.7422 0.2456
7.1800 4.7556 0.2375
7.2000 4.7689 0.2532
7.2200 4.7822 0.2438
7.2400 4.7956 0.2437
7.2600 4.8090 0.2530
7.2800 4.8223 0.2484
7.3000 4.8356 0.2495
7.3200 4.8489 0.2567
7.3400 4.8623 0.2504
7.3600 4.8756 0.2516
7.3800 4.8889 0.2507
7.4000 4.9022 0.2574
7.4200 4.9155 0.2538
7.4400 4.9289 0.2560
7.4600 4.9422 0.2554
7.4800 4.9555 0.2568
7.5000 4.9688 0.2532
7.5200 4.9822 0.2616
7.5400 4.9955 0.2519
7.5600 5.0089 0.2573
7.5800 5.0222 0.2649
7.6000 5.0356 0.2542
7.6200 5.0489 0.2593
7.6400 5.0623 0.2675
7.6600 5.0756 0.2511
7.6800 5.0889 0.2634
7.7000 5.1023 0.2708
7.7200 5.1156 0.2528
7.7400 5.1289 0.2669
7.7600 5.1422 0.2716
7.7800 5.1555 0.2560
7.8000 5.1689 0.2710
7.8200 5.1822 0.2741
7.8400 5.1955 0.2530
7.8600 5.2088 0.2770
7.8800 5.2222 0.2719
7.9000 5.2355 0.2544
7.9200 5.2489 0.2779
7.9400 5.2622 0.2759
7.9600 5.2755 0.2585
7.9800 5.2889 0.2797
8.0000 5.3023 0.2692
8.0200 5.3156 0.2639
8.0400 5.3289 0.2829
8.0600 5.3423 0.2746
8.0800 5.3556 0.2655
8.1000 5.3690 0.2843
8.1200 5.3823 0.2706
8.1400 5.3956 0.2683
8.1600 5.4089 0.2835
8.1800 5.4222 0.2697
8.2000 5.4355 0.2754
8.2200 5.4488 0.2824
8.2400 5.4621 0.2713
8.2600 5.4755 0.2796
8.2800 5.4888 0.2829
8.3000 5.5022 0.2752
8.3200 5.5156 0.2800
8.3400 5.5290 0.2853
8.3600 5.5423 0.2760
8.3800 5.5556 0.2774
8.4000 5.5689 0.2843
8.4200 5.5823 0.2825
8.4400 5.5956 0.2800
8.4600 5.6089 0.2859
8.4800 5.6222 0.2915
8.5000 5.6355 0.2822
8.5200 5.6489 0.2848
8.5400 5.6622 0.2913
8.5600 5.6755 0.2839
8.5800 5.6888 0.2888
8.6000 5.7022 0.2924
8.6200 5.7155 0.2810
8.6400 5.7288 0.2877
8.6600 5.7422 0.2945
8.6800 5.7555 0.2870
8.7000 5.7689 0.2890
8.7200 5.7823 0.2940
8.7400 5.7956 0.2837
8.7600 5.8089 0.2933
8.7800 5.8223 0.2929
8.8000 5.8356 0.2853
8.8200 5.8489 0.2959
8.8400 5.8622 0.2992
8.8600 5.8755 0.2850
8.8800 5.8888 0.3009
8.9000 5.9022 0.2983
8.9200 5.9155 0.2900
8.9400 5.9288 0.2990
8.9600 5.9422 0.3014
8.9800 5.9556 0.2887
9.0000 5.9689 0.2953
9.0200 5.9823 0.3040
9.0400 5.9956 0.2916
9.0600 6.0089 0.3025
9.0800 6.0223 0.3087
9.1000 6.0356 0.2931
9.1200 6.0489 0.3012
9.1400 6.0622 0.3085
9.1600 6.0756 0.2921
9.1800 6.0889 0.3054
9.2000 6.1023 0.3097
9.2200 6.1156 0.2942
9.2400 6.1289 0.3046
9.2600 6.1423 0.3075
9.2800 6.1556 0.2953
9.3000 6.1689 0.3090
9.3200 6.1822 0.3088
9.3400 6.1955 0.2971
9.3600 6.2088 0.3061
9.3800 6.2222 0.3130
9.4000 6.2355 0.3012
9.4200 6.2489 0.3081
9.4400 6.2623 0.3132
9.4600 6.2756 0.2977
9.4800 6.2889 0.3126
9.5000 6.3022 0.3117
9.5200 6.3156 0.3009
9.5400 6.3289 0.3159
9.5600 6.3422 0.3087
9.5800 6.3556 0.3106
9.6000 6.3689 0.3138
9.6200 6.3823 0.3130
9.6400 6.3956 0.3094
9.6600 6.4088 0.3132
9.6800 6.4222 0.3193
9.7000 6.4355 0.3092
9.7200 6.4489 0.3096
9.7400 6.4622 0.3189
9.7600 6.4755 0.3149
9.7800 6.4889 0.3126
9.8000 6.5023 0.3165
9.8200 6.5156 0.3164
9.8400 6.5289 0.3121
9.8600 6.5423 0.3223
9.8800 6.5556 0.3128
9.9000 6.5690 0.3193
9.9200 6.5822 0.3262
9.9400 6.5955 0.3128
9.9600 6.6089 0.3235
9.9800 6.6222 0.3248
10.0000 6.6355 0.3147
10.0200 6.6488 0.3209
10.0400 6.6622 0.3291
10.0600 6.6756 0.3144
10.0800 6.6889 0.3203
10.1000 6.7022 0.3271
10.1200 6.7155 0.3183
10.1400 6.7289 0.3232
10.1600 6.7422 0.3246
10.1800 6.7556 0.3222
10.2000 6.7689 0.3292
10.2200 6.7823 0.3278
10.2400 6.7956 0.3240
10.2600 6.8090 0.3296
10.2800 6.8223 0.3298
10.3000 6.8356 0.3250
10.3200 6.8489 0.3322
10.3400 6.8622 0.3257
10.3600 6.8755 0.3282
10.3800 6.8888 0.3329
10.4000 6.9022 0.3294
10.4200 6.9155 0.3273
10.4400 6.9288 0.3347
10.4600 6.9422 0.3296
10.4800 6.9555 0.3291
10.5000 6.9689 0.3334
10.5200 6.9823 0.3355
10.5400 6.9956 0.3271
10.5600 7.0089 0.3376
10.5800 7.0222 0.3375
10.6000 7.0356 0.3304
10.6200 7.0489 0.3382
10.6400 7.0622 0.3355
10.6600 7.0755 0.3357
10.6800 7.0889 0.3373
10.7000 7.1022 0.3374
10.7200 7.1156 0.3348
10.7400 7.1289 0.3385
10.7600 7.1422 0.3397
10.7800 7.1555 0.3371
10.8000 7.1689 0.3409
10.8200 7.1822 0.3402
10.8400 7.1955 0.3347
10.8600 7.2089 0.3424
10.8800 7.2223 0.3410
10.9000 7.2356 0.3378
10.9200 7.2489 0.3443
10.9400 7.2622 0.3446
10.9600 7.2756 0.3409
10.9800 7.2889 0.3440
11.0000 7.3022 0.3437
11.0200 7.3155 0.3412
11.0400 7.3289 0.3471
11.0600 7.3422 0.3427
11.0800 7.3555 0.3402
11.1000 7.3688 0.3477
11.1200 7.3822 0.3455
11.1400 7.3955 0.3447
11.1600 7.4089 0.3485
11.1800 7.4222 0.3465
11.2000 7.4355 0.3477
11.2200 7.4489 0.3513
11.2400 7.4622 0.3425
11.2600 7.4755 0.3520
11.2800 7.4889 0.3480
11.3000 7.5022 0.3429
11.3200 7.5156 0.3535
11.3400 7.5289 0.3505
11.3600 7.5422 0.3443
11.3800 7.5556 0.3556
11.4000 7.5689 0.3544
11.4200 7.5823 0.3420
11.4400 7.5956 0.3571
11.4600 7.6089 0.3525
11.4800 7.6222 0.3448
11.5000 7.6355 0.3597
11.5200 7.6488 0.3520
11.5400 7.6622 0.3450
11.5600 7.6755 0.3585
11.5800 7.6889 0.3589
11.6000 7.7023 0.3478
11.6200 7.7157 0.3544
11.6400 7.7290 0.3586
11.6600 7.7423 0.3507
11.6800 7.7556 0.3547
11.7000 7.7690 0.3593
11.7200 7.7823 0.3466
11.7400 7.7956 0.3580
11.7600 7.8089 0.3657
11.7800 7.8222 0.3500
11.8000 7.8355 0.3614
11.8200 7.8488 0.3654
11.8400 7.8621 0.3503
11.8600 7.8755 0.3599
11.8800 7.8889 0.3673
11.9000 7.9022 0.3522
11.9200 7.9155 0.3623
11.9400 7.9289 0.3619
11.9600 7.9423 0.3509
11.9800 7.9556 0.3654
12.0000 7.9690 0.3631
12.0200 7.9823 0.3545
12.0400 7.9956 0.3669
12.0600 8.0090 0.3647
12.0800 8.0223 0.3576
12.1000 8.0355 0.3676
12.1200 8.0488 0.3669
12.1400 8.0622 0.3545
12.1600 8.0755 0.3670
12.1800 8.0888 0.3663
12.2000 8.1021 0.3607
12.2200 8.1155 0.3659
12.2400 8.1289 0.3697
12.2600 8.1422 0.3598
12.2800 8.1556 0.3669
12.3000 8.1689 0.3692
12.3200 8.1823 0.3637
12.3400 8.1956 0.3687
12.3600 8.2089 0.3657
12.3800 8.2222 0.3645
12.4000 8.2356 0.3686
12.4200 8.2489 0.3667
12.4400 8.2623 0.3663
12.4600 8.2756 0.3743
12.4800 8.2889 0.3674
12.5000 8.3022 0.3681
12.5200 8.3156 0.3715
12.5400 8.3289 0.3657
12.5600 8.3422 0.3683
12.5800 8.3555 0.3733
12.6000 8.3689 0.3669
12.6200 8.3822 0.3659
12.6400 8.3955 0.3737
12.6600 8.4089 0.3708
12.6800 8.4223 0.3700
12.7000 8.4356 0.3723
12.7200 8.4489 0.3680
12.7400 8.4622 0.3713
12.7600 8.4756 0.3741
12.7800 8.4889 0.3740
12.8000 8.5022 0.3718
12.8200 8.5155 0.3750
12.8400 8.5288 0.3767
12.8600 8.5422 0.3681
12.8800 8.5555 0.3765
12.9000 8.5689 0.3743
12.9200 8.5822 0.3707
12.9400 8.5955 0.3781
12.9600 8.6089 0.3775
12.9800 8.6222 0.3721
13.0000 8.6355 0.3781
13.0200 8.6489 0.3796
13.0400 8.6622 0.3667
13.0600 8.6756 0.3833
13.0800 8.6889 0.3790
13.1000 8.7022 0.3728
13.1200 8.7156 0.3855
13.1400 8.7290 0.3758
13.1600 8.7423 0.3753
13.1800 8.7556 0.3865
13.2000 8.7689 0.3792
13.2200 8.7822 0.3752
13.2400 8.7956 0.3881
13.2600 8.8089 0.3811
13.2800 8.8222 0.3757
13.3000 8.8355 0.3882
13.3200 8.8489 0.3781
13.3400 8.8622 0.3770
13.3600 8.8755 0.3902
13.3800 8.8889 0.3771
13.4000 8.9023 0.3836
13.4200 8.9156 0.3874
13.4400 8.9289 0.3811
13.4600 8.9422 0.3845
13.4800 8.9556 0.3924
13.5000 8.9689 0.3811
13.5200 8.9823 0.3902
13.5400 8.9956 0.3900
13.5600 9.0089 0.3822
13.5800 9.0222 0.3899
13.6000 9.0356 0.3905
13.6200 9.0489 0.3863
13.6400 9.0621 0.3880
13.6600 9.0755 0.3947
13.6800 9.0888 0.3851
13.7000 9.1022 0.3888
13.7200 9.1155 0.3919
13.7400 9.1288 0.3906
13.7600 9.1422 0.3920
13.7800 9.1556 0.3824
13.8000 9.1690 0.3940
13.8200 9.1823 0.3872
13.8400 9.1956 0.3918
13.8600 9.2090 0.3951
13.8800 9.2223 0.3881
13.9000 9.2355 0.3922
13.9200 9.2488 0.3913
13.9400 9.2622 0.3889
13.9600 9.2755 0.3973
13.9800 9.2888 0.3894
14.0000 9.3022 0.3884
14.0200 9.3155 0.3951
14.0400 9.3289 0.3925
14.0600 9.3422 0.3906
14.0800 9.3556 0.3963
14.1000 9.3689 0.3940
14.1200 9.3823 0.3887
14.1400 9.3956 0.3929
14.1600 9.4089 0.3934
14.1800 9.4222 0.3926
14.2000 9.4356 0.3977
14.2200 9.4489 0.3941
14.2400 9.4623 0.3888
14.2600 9.4755 0.3973
14.2800 9.4888 0.3968
14.3000 9.5022 0.3953
14.3200 9.5155 0.3981
14.3400 9.5289 0.3966
14.3600 9.5422 0.3940
14.3800 9.5555 0.3988
14.4000 9.5689 0.3999
14.4200 9.5822 0.3956
14.4400 9.5956 0.3960
14.4600 9.6089 0.4034
14.4800 9.6223 0.3946
14.5000 9.6356 0.3994
14.5200 9.6489 0.4004
14.5400 9.6622 0.3965
14.5600 9.6755 0.4012
14.5800 9.6889 0.4032
14.6000 9.7023 0.3994
14.6200 9.7156 0.4024
14.6400 9.7289 0.4036
14.6600 9.7422 0.4022
14.6800 9.7556 0.4012
14.7000 9.7689 0.4037
14.7200 9.7822 0.4019
14.7400 9.7955 0.4044
14.7600 9.8089 0.4041
14.7800 9.8222 0.3985
14.8000 9.8356 0.4078
14.8200 9.8489 0.4046
14.8400 9.8622 0.4023
14.8600 9.8756 0.4034
14.8800 9.8890 0.4050
14.9000 9.9023 0.4026
14.9200 9.9156 0.4079
14.9400 9.9289 0.4070
14.9600 9.9423 0.4065
14.9800 9.9555 0.4114
15.0000 9.9689 0.4042
15.0200 9.9822 0.4080
15.0400 9.9956 0.4136
15.0600 10.0089 0.4016
15.0800 10.0222 0.4087
15.1000 10.0355 0.4127
15.1200 10.0489 0.4053
15.1400 10.0622 0.4116
15.1600 10.0755 0.4147
15.1800 10.0889 0.4085
15.2000 10.1022 0.4149
15.2200 10.1156 0.4114
15.2400 10.1289 0.4032
15.2600 10.1422 0.4171
15.2800 10.1556 0.4118
15.3000 10.1690 0.4062
15.3200 10.1823 0.4137
15.3400 10.1956 0.4155
15.3600 10.2089 0.4124
15.3800 10.2222 0.4111
15.4000 10.2356 0.4190
15.4200 10.2489 0.4123
15.4400 10.2622 0.4166
15.4600 10.2755 0.4172
15.4800 10.2888 0.4086
15.5000 10.3022 0.4196
15.5200 10.3155 0.4177
15.5400 10.3289 0.4130
15.5600 10.3423 0.4171
15.5800 10.3556 0.4192
15.6000 10.3690 0.4183
15.6200 10.3823 0.4183
15.6400 10.3956 0.4192
15.6600 10.4090 0.4174
15.6800 10.4223 0.4180
15.7000 10.4356 0.4217
15.7200 10.4489 0.4237
15.7400 10.4622 0.4193
15.7600 10.4756 0.4218
15.7800 10.4889 0.4204
15.8000 10.5022 0.4189
15.8200 10.5155 0.4234
15.8400 10.5288 0.4223
15.8600 10.5422 0.4161
15.8800 10.5555 0.4236
15.9000 10.5689 0.4220
15.9200 10.5822 0.4219
15.9400 10.5956 0.4257
15.9600 10.6090 0.4181
15.9800 10.6223 0.4230
16.0000 10.6356 0.4240
16.0200 10.6490 0.4232
16.0400 10.6623 0.4278
16.0600 10.6756 0.4221
16.0800 10.6889 0.4241
16.1000 10.7022 0.4307
16.1200 10.7155 0.4226
16.1400 10.7289 0.4221
16.1600 10.7422 0.4297
16.1800 10.7555 0.4257
16.2000 10.7689 0.4231
16.2200 10.7823 0.4277
16.2400 10.7956 0.4249
16.2600 10.8089 0.4343
16.2800 10.8222 0.4267
16.3000 10.8356 0.4207
16.3200 10.8489 0.4331
16.3400 10.8622 0.4280
16.3600 10.8755 0.4250
16.3800 10.8889 0.4291
16.4000 10.9023 0.4321
16.4200 10.9156 0.4299
16.4400 10.9289 0.4274
16.4600 10.9422 0.4304
16.4800 10.9556 0.4333
16.5000 10.9689 0.4287
16.5200 10.9822 0.4295
16.5400 10.9955 0.4301
16.5600 11.0089 0.4322
16.5800 11.0222 0.4302
16.6000 11.0355 0.4353
16.6200 11.0488 0.4300
16.6400 11.0622 0.4369
16.6600 11.0756 0.4348
16.6800 11.0889 0.4294
16.7000 11.1022 0.4359
16.7200 11.1156 0.4311
16.7400 11.1289 0.4300
16.7600 11.1423 0.4412
16.7800 11.1556 0.4301
16.8000 11.1689 0.4294
16.8200 11.1822 0.4423
16.8400 11.1956 0.4338
16.8600 11.2089 0.4301
16.8800 11.2222 0.4480
16.9000 11.2355 0.4329
16.9200 11.2488 0.4320
16.9400 11.2622 0.4453
16.9600 11.2755 0.4282
16.9800 11.2888 0.4353
17.0000 11.3022 0.4512
17.0200 11.3156 0.4261
17.0400 11.3289 0.4359
17.0600 11.3423 0.4446
17.0800 11.3556 0.4254
17.1000 11.3690 0.4400
17.1200 11.3823 0.4458
17.1400 11.3956 0.4229
17.1600 11.4089 0.4434
17.1800 11.4222 0.4467
17.2000 11.4355 0.4304
17.2200 11.4489 0.4433
17.2400 11.4622 0.4442
17.2600 11.4755 0.4335
17.2800 11.4889 0.4439
17.3000 11.5022 0.4423
17.3200 11.5156 0.4361
17.3400 11.5289 0.4410
17.3600 11.5422 0.4434
17.3800 11.5556 0.4369
17.4000 11.5689 0.4409
17.4200 11.5823 0.4481
17.4400 11.5956 0.4383
17.4600 11.6089 0.4389
17.4800 11.6223 0.4466
17.5000 11.6356 0.4454
17.5200 11.6489 0.4399
17.5400 11.6622 0.4530
17.5600 11.6756 0.4416
17.5800 11.6889 0.4396
17.6000 11.7022 0.4548
17.6200 11.7155 0.4366
