Raw Data
Time Displacement Force
(s) (mm) (N)
0.0000 0.0000 0.4363
0.0200 -0.0001 0.4336
0.0400 -0.0020 0.4090
0.0600 -0.0093 0.3768
0.0800 -0.0212 0.3386
0.1000 -0.0338 0.2883
0.1200 -0.0466 0.2377
0.1400 -0.0598 0.1862
0.1600 -0.0737 0.1368
0.1800 -0.0878 0.0849
0.2000 -0.1017 0.0371
0.2200 -0.1153 -0.0106
0.2400 -0.1286 -0.0422
0.2600 -0.1420 -0.0705
0.2800 -0.1554 -0.1154
0.3000 -0.1687 -0.1727
0.3200 -0.1821 -0.2322
0.3400 -0.1954 -0.2865
0.3600 -0.2088 -0.3421
0.3800 -0.2222 -0.3905
0.4000 -0.2354 -0.4353
0.4200 -0.2487 -0.4827
0.4400 -0.2620 -0.5233
0.4600 -0.2753 -0.5399
0.4800 -0.2887 -0.5423
0.5000 -0.3020 -0.5415
0.5200 -0.3153 -0.5373
0.5400 -0.3287 -0.5383
0.5600 -0.3421 -0.5384
0.5800 -0.3554 -0.5372
0.6000 -0.3688 -0.5384
0.6200 -0.3821 -0.5370
0.6400 -0.3955 -0.5353
0.6600 -0.4088 -0.5349
0.6800 -0.4221 -0.5345
0.7000 -0.4354 -0.5342
0.7200 -0.4488 -0.5349
0.7400 -0.4621 -0.5353
0.7600 -0.4754 -0.5330
0.7800 -0.4888 -0.5334
0.8000 -0.5021 -0.5328
0.8200 -0.5154 -0.5308
0.8400 -0.5287 -0.5311
0.8600 -0.5420 -0.5302
0.8800 -0.5553 -0.5288
0.9000 -0.5687 -0.5288
0.9200 -0.5820 -0.5287
0.9400 -0.5953 -0.5275
0.9600 -0.6087 -0.5274
0.9800 -0.6220 -0.5271
1.0000 -0.6354 -0.5278
1.0200 -0.6487 -0.5248
1.0400 -0.6620 -0.5257
1.0600 -0.6754 -0.5218
1.0800 -0.6888 -0.5228
1.1000 -0.7021 -0.5207
1.1200 -0.7154 -0.5223
1.1400 -0.7287 -0.5215
1.1600 -0.7421 -0.5227
1.1800 -0.7554 -0.5205
1.2000 -0.7687 -0.5217
1.2200 -0.7820 -0.5181
1.2400 -0.7953 -0.5157
1.2600 -0.8087 -0.5133
1.2800 -0.8221 -0.5157
1.3000 -0.8354 -0.5138
1.3200 -0.8487 -0.5141
1.3400 -0.8621 -0.5152
1.3600 -0.8755 -0.5111
1.3800 -0.8888 -0.5115
1.4000 -0.9021 -0.5142
1.4200 -0.9154 -0.5103
1.4400 -0.9288 -0.5110
1.4600 -0.9421 -0.5098
1.4800 -0.9554 -0.5062
1.5000 -0.9687 -0.5061
1.5200 -0.9821 -0.5053
1.5400 -0.9954 -0.5031
1.5600 -1.0087 -0.5030
1.5800 -1.0220 -0.5034
1.6000 -1.0353 -0.5002
1.6200 -1.0487 -0.5005
1.6400 -1.0621 -0.5003
1.6600 -1.0754 -0.4980
1.6800 -1.0887 -0.5008
1.7000 -1.1021 -0.4996
1.7200 -1.1155 -0.4947
1.7400 -1.1288 -0.4959
1.7600 -1.1421 -0.4962
1.7800 -1.1555 -0.4958
1.8000 -1.1688 -0.4932
1.8200 -1.1822 -0.4938
1.8400 -1.1955 -0.4894
1.8600 -1.2088 -0.4905
1.8800 -1.2221 -0.4916
1.9000 -1.2354 -0.4893
1.9200 -1.2487 -0.4888
1.9400 -1.2620 -0.4899
1.9600 -1.2753 -0.4861
1.9800 -1.2887 -0.4858
2.0000 -1.3021 -0.4854
2.0200 -1.3154 -0.4846
2.0400 -1.3287 -0.4842
2.0600 -1.3421 -0.4856
2.0800 -1.3555 -0.4824
2.1000 -1.3688 -0.4819
2.1200 -1.3821 -0.4826
2.1400 -1.3955 -0.4796
2.1600 -1.4088 -0.4756
2.1800 -1.4221 -0.4753
2.2000 -1.4355 -0.4756
2.2200 -1.4487 -0.4771
2.2400 -1.4621 -0.4778
2.2600 -1.4754 -0.4731
2.2800 -1.4887 -0.4710
2.3000 -1.5020 -0.4740
2.3200 -1.5153 -0.4743
2.3400 -1.5287 -0.4723
2.3600 -1.5420 -0.4713
2.3800 -1.5554 -0.4704
2.4000 -1.5687 -0.4719
2.4200 -1.5821 -0.4729
2.4400 -1.5955 -0.4706
2.4600 -1.6088 -0.4676
2.4800 -1.6221 -0.4689
2.5000 -1.6354 -0.4661
2.5200 -1.6488 -0.4680
2.5400 -1.6621 -0.4704
2.5600 -1.6754 -0.4653
2.5800 -1.6887 -0.4618
2.6000 -1.7021 -0.4621
2.6200 -1.7154 -0.4621
2.6400 -1.7287 -0.4626
2.6600 -1.7420 -0.4646
2.6800 -1.7554 -0.4593
2.7000 -1.7687 -0.4586
2.7200 -1.7821 -0.4602
2.7400 -1.7954 -0.4591
2.7600 -1.8087 -0.4564
2.7800 -1.8221 -0.4563
2.8000 -1.8355 -0.4517
2.8200 -1.8488 -0.4518
2.8400 -1.8621 -0.4530
2.8600 -1.8753 -0.4558
2.8800 -1.8887 -0.4526
2.9000 -1.9021 -0.4526
2.9200 -1.9154 -0.4516
2.9400 -1.9287 -0.4519
2.9600 -1.9421 -0.4510
2.9800 -1.9554 -0.4506
3.0000 -1.9688 -0.4489
3.0200 -1.9821 -0.4518
3.0400 -1.9954 -0.4475
3.0600 -2.0087 -0.4492
3.0800 -2.0221 -0.4476
3.1000 -2.0354 -0.4475
3.1200 -2.0487 -0.4444
3.1400 -2.0621 -0.4482
3.1600 -2.0755 -0.4448
3.1800 -2.0888 -0.4420
3.2000 -2.1021 -0.4439
3.2200 -2.1154 -0.4424
3.2400 -2.1288 -0.4436
3.2600 -2.1422 -0.4436
3.2800 -2.1555 -0.4409
3.3000 -2.1688 -0.4383
3.3200 -2.1821 -0.4398
3.3400 -2.1955 -0.4371
3.3600 -2.2088 -0.4387
3.3800 -2.2221 -0.4368
3.4000 -2.2353 -0.4394
3.4200 -2.2487 -0.4334
3.4400 -2.2621 -0.4371
3.4600 -2.2754 -0.4338
3.4800 -2.2887 -0.4332
3.5000 -2.3021 -0.4344
3.5200 -2.3154 -0.4329
3.5400 -2.3288 -0.4308
3.5600 -2.3421 -0.4326
3.5800 -2.3554 -0.4302
3.6000 -2.3688 -0.4292
3.6200 -2.3821 -0.4296
3.6400 -2.3954 -0.4288
3.6600 -2.4087 -0.4284
3.6800 -2.4221 -0.4286
3.7000 -2.4354 -0.4262
3.7200 -2.4488 -0.4236
3.7400 -2.4621 -0.4278
3.7600 -2.4753 -0.4236
3.7800 -2.4887 -0.4228
3.8000 -2.5021 -0.4231
3.8200 -2.5154 -0.4198
3.8400 -2.5287 -0.4208
3.8600 -2.5420 -0.4224
3.8800 -2.5554 -0.4222
3.9000 -2.5688 -0.4196
3.9200 -2.5821 -0.4208
3.9400 -2.5954 -0.4172
3.9600 -2.6087 -0.4174
3.9800 -2.6221 -0.4165
4.0000 -2.6355 -0.4178
4.0200 -2.6488 -0.4159
4.0400 -2.6621 -0.4178
4.0600 -2.6754 -0.4146
4.0800 -2.6888 -0.4126
4.1000 -2.7021 -0.4146
4.1200 -2.7154 -0.4137
4.1400 -2.7287 -0.4133
4.1600 -2.7421 -0.4131
4.1800 -2.7554 -0.4142
4.2000 -2.7688 -0.4113
4.2200 -2.7821 -0.4130
4.2400 -2.7954 -0.4097
4.2600 -2.8088 -0.4102
4.2800 -2.8221 -0.4101
4.3000 -2.8354 -0.4083
4.3200 -2.8488 -0.4070
4.3400 -2.8621 -0.4088
4.3600 -2.8754 -0.4061
4.3800 -2.8887 -0.4077
4.4000 -2.9021 -0.4071
4.4200 -2.9154 -0.4058
4.4400 -2.9288 -0.4050
4.4600 -2.9421 -0.4038
4.4800 -2.9554 -0.4038
4.5000 -2.9687 -0.4021
4.5200 -2.9821 -0.4041
4.5400 -2.9954 -0.4009
4.5600 -3.0088 -0.4001
4.5800 -3.0221 -0.4016
4.6000 -3.0354 -0.4003
4.6200 -3.0488 -0.3977
4.6400 -3.0621 -0.3993
4.6600 -3.0754 -0.3971
4.6800 -3.0887 -0.3956
4.7000 -3.1021 -0.3976
4.7200 -3.1155 -0.3976
4.7400 -3.1288 -0.3941
4.7600 -3.1421 -0.3961
4.7800 -3.1554 -0.3953
4.8000 -3.1688 -0.3919
4.8200 -3.1821 -0.3941
4.8400 -3.1954 -0.3913
4.8600 -3.2087 -0.3905
4.8800 -3.2221 -0.3916
4.9000 -3.2354 -0.3905
4.9200 -3.2487 -0.3902
4.9400 -3.2621 -0.3906
4.9600 -3.2754 -0.3885
4.9800 -3.2888 -0.3868
5.0000 -3.3021 -0.3879
5.0200 -3.3154 -0.3873
5.0400 -3.3287 -0.3846
5.0600 -3.3421 -0.3847
5.0800 -3.3555 -0.3827
5.1000 -3.3688 -0.3826
5.1200 -3.3821 -0.3834
5.1400 -3.3955 -0.3819
5.1600 -3.4088 -0.3792
5.1800 -3.4221 -0.3817
5.2000 -3.4354 -0.3789
5.2200 -3.4487 -0.3788
5.2400 -3.4620 -0.3779
5.2600 -3.4753 -0.3782
5.2800 -3.4886 -0.3747
5.3000 -3.5020 -0.3787
5.3200 -3.5154 -0.3750
5.3400 -3.5288 -0.3747
5.3600 -3.5421 -0.3742
5.3800 -3.5554 -0.3766
5.4000 -3.5688 -0.3735
5.4200 -3.5822 -0.3760
5.4400 -3.5955 -0.3722
5.4600 -3.6088 -0.3727
5.4800 -3.6221 -0.3715
5.5000 -3.6354 -0.3719
5.5200 -3.6488 -0.3698
5.5400 -3.6621 -0.3724
5.5600 -3.6754 -0.3698
5.5800 -3.6887 -0.3675
5.6000 -3.7021 -0.3690
5.6200 -3.7154 -0.3678
5.6400 -3.7287 -0.3675
5.6600 -3.7421 -0.3679
5.6800 -3.7554 -0.3692
5.7000 -3.7688 -0.3654
5.7200 -3.7822 -0.3685
5.7400 -3.7955 -0.3659
5.7600 -3.8088 -0.3659
5.7800 -3.8221 -0.3644
5.8000 -3.8355 -0.3665
5.8200 -3.8488 -0.3633
5.8400 -3.8621 -0.3639
5.8600 -3.8754 -0.3621
5.8800 -3.8888 -0.3601
5.9000 -3.9021 -0.3615
5.9200 -3.9153 -0.3638
5.9400 -3.9287 -0.3597
5.9600 -3.9420 -0.3619
5.9800 -3.9554 -0.3601
6.0000 -3.9687 -0.3580
6.0200 -3.9821 -0.3602
6.0400 -3.9954 -0.3605
6.0600 -4.0088 -0.3566
6.0800 -4.0221 -0.3566
6.1000 -4.0354 -0.3574
6.1200 -4.0488 -0.3537
6.1400 -4.0621 -0.3553
6.1600 -4.0755 -0.3561
6.1800 -4.0888 -0.3524
6.2000 -4.1021 -0.3528
6.2200 -4.1154 -0.3517
6.2400 -4.1288 -0.3504
6.2600 -4.1421 -0.3535
6.2800 -4.1553 -0.3513
6.3000 -4.1686 -0.3484
6.3200 -4.1820 -0.3487
6.3400 -4.1954 -0.3499
6.3600 -4.2087 -0.3477
6.3800 -4.2220 -0.3497
6.4000 -4.2354 -0.3479
6.4200 -4.2488 -0.3444
6.4400 -4.2621 -0.3473
6.4600 -4.2755 -0.3490
6.4800 -4.2888 -0.3460
6.5000 -4.3021 -0.3472
6.5200 -4.3155 -0.3455
6.5400 -4.3288 -0.3433
6.5600 -4.3421 -0.3443
6.5800 -4.3554 -0.3432
6.6000 -4.3688 -0.3422
6.6200 -4.3821 -0.3417
6.6400 -4.3954 -0.3434
6.6600 -4.4087 -0.3382
6.6800 -4.4221 -0.3411
6.7000 -4.4354 -0.3406
6.7200 -4.4487 -0.3405
6.7400 -4.4621 -0.3390
6.7600 -4.4754 -0.3384
6.7800 -4.4888 -0.3388
6.8000 -4.5021 -0.3407
6.8200 -4.5154 -0.3376
6.8400 -4.5287 -0.3352
6.8600 -4.5421 -0.3356
6.8800 -4.5555 -0.3356
6.9000 -4.5688 -0.3347
6.9200 -4.5821 -0.3359
6.9400 -4.5955 -0.3359
6.9600 -4.6088 -0.3334
6.9800 -4.6221 -0.3331
7.0000 -4.6354 -0.3324
7.0200 -4.6487 -0.3304
7.0400 -4.6620 -0.3320
7.0600 -4.6754 -0.3342
7.0800 -4.6887 -0.3314
7.1000 -4.7020 -0.3322
7.1200 -4.7154 -0.3317
7.1400 -4.7288 -0.3317
7.1600 -4.7421 -0.3276
7.1800 -4.7554 -0.3282
7.2000 -4.7687 -0.3259
7.2200 -4.7821 -0.3258
7.2400 -4.7955 -0.3278
7.2600 -4.8088 -0.3256
7.2800 -4.8221 -0.3261
7.3000 -4.8354 -0.3270
7.3200 -4.8488 -0.3239
7.3400 -4.8621 -0.3245
7.3600 -4.8754 -0.3243
7.3800 -4.8887 -0.3241
7.4000 -4.9020 -0.3209
7.4200 -4.9154 -0.3244
7.4400 -4.9287 -0.3196
7.4600 -4.9420 -0.3230
7.4800 -4.9554 -0.3225
7.5000 -4.9688 -0.3208
7.5200 -4.9821 -0.3184
7.5400 -4.9955 -0.3210
7.5600 -5.0088 -0.3170
7.5800 -5.0221 -0.3187
7.6000 -5.0355 -0.3174
7.6200 -5.0488 -0.3161
7.6400 -5.0621 -0.3163
7.6600 -5.0754 -0.3156
7.6800 -5.0887 -0.3142
7.7000 -5.1020 -0.3133
7.7200 -5.1153 -0.3155
7.7400 -5.1286 -0.3130
7.7600 -5.1420 -0.3139
7.7800 -5.1554 -0.3135
7.8000 -5.1687 -0.3131
7.8200 -5.1821 -0.3100
7.8400 -5.1954 -0.3092
7.8600 -5.2088 -0.3062
7.8800 -5.2222 -0.3079
7.9000 -5.2355 -0.3091
7.9200 -5.2488 -0.3070
7.9400 -5.2621 -0.3075
7.9600 -5.2755 -0.3078
7.9800 -5.2888 -0.3039
8.0000 -5.3021 -0.3060
8.0200 -5.3154 -0.3046
8.0400 -5.3288 -0.3036
8.0600 -5.3421 -0.3011
8.0800 -5.3554 -0.3037
8.1000 -5.3687 -0.3007
8.1200 -5.3821 -0.3030
8.1400 -5.3954 -0.3016
8.1600 -5.4088 -0.3004
8.1800 -5.4221 -0.3009
8.2000 -5.4354 -0.3021
8.2200 -5.4488 -0.2995
8.2400 -5.4621 -0.2995
8.2600 -5.4754 -0.3017
8.2800 -5.4887 -0.2988
8.3000 -5.5021 -0.2988
8.3200 -5.5155 -0.3003
8.3400 -5.5288 -0.2970
8.3600 -5.5421 -0.2968
8.3800 -5.5554 -0.2966
8.4000 -5.5687 -0.2947
8.4200 -5.5821 -0.2957
8.4400 -5.5954 -0.2956
8.4600 -5.6087 -0.2936
8.4800 -5.6220 -0.2938
8.5000 -5.6354 -0.2953
8.5200 -5.6488 -0.2946
8.5400 -5.6621 -0.2950
8.5600 -5.6754 -0.2950
8.5800 -5.6888 -0.2929
8.6000 -5.7021 -0.2924
8.6200 -5.7155 -0.2931
8.6400 -5.7288 -0.2916
8.6600 -5.7421 -0.2917
8.6800 -5.7554 -0.2913
8.7000 -5.7688 -0.2909
8.7200 -5.7821 -0.2894
8.7400 -5.7954 -0.2908
8.7600 -5.8087 -0.2890
8.7800 -5.8221 -0.2884
8.8000 -5.8354 -0.2880
8.8200 -5.8487 -0.2869
8.8400 -5.8620 -0.2859
8.8600 -5.8754 -0.2870
8.8800 -5.8888 -0.2838
8.9000 -5.9021 -0.2848
8.9200 -5.9154 -0.2848
8.9400 -5.9288 -0.2827
8.9600 -5.9421 -0.2849
8.9800 -5.9555 -0.2832
9.0000 -5.9688 -0.2824
9.0200 -5.9821 -0.2816
9.0400 -5.9955 -0.2841
9.0600 -6.0088 -0.2794
9.0800 -6.0221 -0.2815
9.1000 -6.0354 -0.2804
9.1200 -6.0487 -0.2797
9.1400 -6.0621 -0.2766
9.1600 -6.0754 -0.2790
9.1800 -6.0886 -0.2753
9.2000 -6.1020 -0.2766
9.2200 -6.1154 -0.2767
9.2400 -6.1287 -0.2750
9.2600 -6.1421 -0.2736
9.2800 -6.1554 -0.2748
9.3000 -6.1688 -0.2738
9.3200 -6.1822 -0.2719
9.3400 -6.1955 -0.2741
9.3600 -6.2088 -0.2707
9.3800 -6.2221 -0.2701
9.4000 -6.2355 -0.2715
9.4200 -6.2488 -0.2718
9.4400 -6.2621 -0.2702
9.4600 -6.2754 -0.2719
9.4800 -6.2887 -0.2690
9.5000 -6.3021 -0.2714
9.5200 -6.3154 -0.2708
9.5400 -6.3286 -0.2703
9.5600 -6.3420 -0.2679
9.5800 -6.3554 -0.2692
9.6000 -6.3687 -0.2682
9.6200 -6.3821 -0.2679
9.6400 -6.3954 -0.2686
9.6600 -6.4088 -0.2675
9.6800 -6.4222 -0.2643
9.7000 -6.4355 -0.2662
9.7200 -6.4488 -0.2637
9.7400 -6.4621 -0.2652
9.7600 -6.4755 -0.2632
9.7800 -6.4888 -0.2634
9.8000 -6.5021 -0.2610
9.8200 -6.5154 -0.2643
9.8400 -6.5287 -0.2613
9.8600 -6.5421 -0.2617
9.8800 -6.5554 -0.2608
9.9000 -6.5687 -0.2621
9.9200 -6.5820 -0.2584
9.9400 -6.5954 -0.2602
9.9600 -6.6088 -0.2580
9.9800 -6.6221 -0.2597
10.0000 -6.6354 -0.2592
10.0200 -6.6488 -0.2589
10.0400 -6.6621 -0.2563
10.0600 -6.6754 -0.2552
10.0800 -6.6887 -0.2579
10.1000 -6.7020 -0.2545
10.1200 -6.7154 -0.2572
10.1400 -6.7287 -0.2543
10.1600 -6.7421 -0.2550
10.1800 -6.7554 -0.2531
10.2000 -6.7687 -0.2532
10.2200 -6.7821 -0.2487
10.2400 -6.7954 -0.2529
10.2600 -6.8087 -0.2500
10.2800 -6.8220 -0.2494
10.3000 -6.8354 -0.2489
10.3200 -6.8487 -0.2500
10.3400 -6.8621 -0.2484
10.3600 -6.8754 -0.2497
10.3800 -6.8888 -0.2485
10.4000 -6.9021 -0.2445
10.4200 -6.9155 -0.2464
10.4400 -6.9288 -0.2476
10.4600 -6.9421 -0.2460
10.4800 -6.9555 -0.2476
10.5000 -6.9688 -0.2454
10.5200 -6.9821 -0.2444
10.5400 -6.9954 -0.2437
10.5600 -7.0088 -0.2452
10.5800 -7.0221 -0.2439
10.6000 -7.0354 -0.2446
10.6200 -7.0487 -0.2420
10.6400 -7.0620 -0.2423
10.6600 -7.0754 -0.2424
10.6800 -7.0887 -0.2419
10.7000 -7.1021 -0.2387
10.7200 -7.1154 -0.2415
10.7400 -7.1287 -0.2405
10.7600 -7.1421 -0.2391
10.7800 -7.1555 -0.2421
10.8000 -7.1688 -0.2414
10.8200 -7.1821 -0.2389
10.8400 -7.1955 -0.2384
10.8600 -7.2088 -0.2388
10.8800 -7.2221 -0.2366
10.9000 -7.2354 -0.2391
10.9200 -7.2488 -0.2379
10.9400 -7.2621 -0.2382
10.9600 -7.2754 -0.2366
10.9800 -7.2887 -0.2372
11.0000 -7.3020 -0.2351
11.0200 -7.3154 -0.2356
11.0400 -7.3287 -0.2351
11.0600 -7.3421 -0.2347
11.0800 -7.3554 -0.2353
11.1000 -7.3687 -0.2350
11.1200 -7.3821 -0.2362
11.1400 -7.3955 -0.2323
11.1600 -7.4088 -0.2364
11.1800 -7.4221 -0.2344
11.2000 -7.4354 -0.2352
11.2200 -7.4488 -0.2332
11.2400 -7.4621 -0.2311
11.2600 -7.4754 -0.2299
11.2800 -7.4888 -0.2314
11.3000 -7.5021 -0.2298
11.3200 -7.5154 -0.2314
11.3400 -7.5287 -0.2300
11.3600 -7.5420 -0.2292
11.3800 -7.5554 -0.2303
11.4000 -7.5687 -0.2290
11.4200 -7.5821 -0.2285
11.4400 -7.5954 -0.2275
11.4600 -7.6088 -0.2281
11.4800 -7.6221 -0.2265
11.5000 -7.6355 -0.2243
11.5200 -7.6488 -0.2257
11.5400 -7.6621 -0.2255
11.5600 -7.6754 -0.2250
11.5800 -7.6888 -0.2227
11.6000 -7.7021 -0.2238
11.6200 -7.7154 -0.2219
11.6400 -7.7287 -0.2230
11.6600 -7.7421 -0.2204
11.6800 -7.7554 -0.2214
11.7000 -7.7687 -0.2221
11.7200 -7.7820 -0.2209
11.7400 -7.7954 -0.2213
11.7600 -7.8088 -0.2204
11.7800 -7.8221 -0.2196
11.8000 -7.8354 -0.2194
11.8200 -7.8487 -0.2204
11.8400 -7.8621 -0.2172
11.8600 -7.8755 -0.2182
11.8800 -7.8888 -0.2162
11.9000 -7.9021 -0.2178
11.9200 -7.9154 -0.2172
11.9400 -7.9288 -0.2189
11.9600 -7.9421 -0.2166
11.9800 -7.9554 -0.2179
12.0000 -7.9687 -0.2161
12.0200 -7.9821 -0.2166
12.0400 -7.9954 -0.2147
12.0600 -8.0087 -0.2144
12.0800 -8.0220 -0.2112
12.1000 -8.0354 -0.2125
12.1200 -8.0488 -0.2110
12.1400 -8.0621 -0.2106
12.1600 -8.0754 -0.2100
12.1800 -8.0887 -0.2126
12.2000 -8.1021 -0.2098
12.2200 -8.1155 -0.2106
12.2400 -8.1288 -0.2085
12.2600 -8.1421 -0.2075
12.2800 -8.1554 -0.2071
12.3000 -8.1688 -0.2098
12.3200 -8.1822 -0.2059
12.3400 -8.1955 -0.2070
12.3600 -8.2088 -0.2051
12.3800 -8.2222 -0.2023
12.4000 -8.2355 -0.2046
12.4200 -8.2487 -0.2051
12.4400 -8.2620 -0.2051
12.4600 -8.2754 -0.2058
12.4800 -8.2887 -0.2065
12.5000 -8.3020 -0.2015
12.5200 -8.3153 -0.2026
12.5400 -8.3287 -0.2019
12.5600 -8.3421 -0.2023
12.5800 -8.3555 -0.1997
12.6000 -8.3688 -0.2021
12.6200 -8.3821 -0.1994
12.6400 -8.3955 -0.2009
12.6600 -8.4088 -0.1991
12.6800 -8.4222 -0.1990
12.7000 -8.4355 -0.1984
12.7200 -8.4487 -0.1994
12.7400 -8.4621 -0.1993
12.7600 -8.4754 -0.1979
12.7800 -8.4887 -0.1978
12.8000 -8.5020 -0.1979
12.8200 -8.5153 -0.1958
12.8400 -8.5287 -0.1946
12.8600 -8.5421 -0.1936
12.8800 -8.5554 -0.1933
12.9000 -8.5687 -0.1934
12.9200 -8.5821 -0.1918
12.9400 -8.5955 -0.1934
12.9600 -8.6088 -0.1924
12.9800 -8.6221 -0.1930
13.0000 -8.6354 -0.1914
13.0200 -8.6488 -0.1906
13.0400 -8.6621 -0.1921
13.0600 -8.6754 -0.1910
13.0800 -8.6887 -0.1919
13.1000 -8.7021 -0.1896
13.1200 -8.7154 -0.1893
13.1400 -8.7287 -0.1891
13.1600 -8.7420 -0.1881
13.1800 -8.7554 -0.1869
13.2000 -8.7687 -0.1879
13.2200 -8.7821 -0.1867
13.2400 -8.7954 -0.1865
13.2600 -8.8087 -0.1875
13.2800 -8.8221 -0.1854
13.3000 -8.8355 -0.1842
13.3200 -8.8488 -0.1842
13.3400 -8.8621 -0.1851
13.3600 -8.8755 -0.1843
13.3800 -8.8888 -0.1843
13.4000 -8.9021 -0.1821
13.4200 -8.9154 -0.1815
13.4400 -8.9287 -0.1821
13.4600 -8.9421 -0.1804
13.4800 -8.9554 -0.1798
13.5000 -8.9687 -0.1793
13.5200 -8.9820 -0.1797
13.5400 -8.9953 -0.1778
13.5600 -9.0087 -0.1786
13.5800 -9.0220 -0.1780
13.6000 -9.0354 -0.1766
13.6200 -9.0487 -0.1763
13.6400 -9.0621 -0.1774
13.6600 -9.0755 -0.1767
13.6800 -9.0888 -0.1765
13.7000 -9.1021 -0.1748
13.7200 -9.1154 -0.1759
13.7400 -9.1288 -0.1764
13.7600 -9.1421 -0.1754
13.7800 -9.1554 -0.1747
13.8000 -9.1688 -0.1745
13.8200 -9.1821 -0.1734
13.8400 -9.1955 -0.1726
13.8600 -9.2088 -0.1745
13.8800 -9.2220 -0.1727
13.9000 -9.2354 -0.1721
13.9200 -9.2487 -0.1743
13.9400 -9.2621 -0.1737
13.9600 -9.2754 -0.1742
13.9800 -9.2887 -0.1726
14.0000 -9.3021 -0.1721
14.0200 -9.3154 -0.1722
14.0400 -9.3288 -0.1715
14.0600 -9.3421 -0.1713
14.0800 -9.3554 -0.1710
14.1000 -9.3688 -0.1714
14.1200 -9.3822 -0.1699
14.1400 -9.3955 -0.1690
14.1600 -9.4088 -0.1689
14.1800 -9.4221 -0.1695
14.2000 -9.4355 -0.1660
14.2200 -9.4488 -0.1673
14.2400 -9.4620 -0.1639
14.2600 -9.4754 -0.1668
14.2800 -9.4887 -0.1652
14.3000 -9.5021 -0.1664
14.3200 -9.5154 -0.1629
14.3400 -9.5287 -0.1662
14.3600 -9.5420 -0.1639
14.3800 -9.5554 -0.1647
14.4000 -9.5688 -0.1648
14.4200 -9.5821 -0.1647
14.4400 -9.5954 -0.1617
14.4600 -9.6088 -0.1644
14.4800 -9.6222 -0.1627
14.5000 -9.6355 -0.1632
14.5200 -9.6488 -0.1628
14.5400 -9.6621 -0.1604
14.5600 -9.6754 -0.1597
14.5800 -9.6887 -0.1583
14.6000 -9.7020 -0.1590
14.6200 -9.7153 -0.1595
14.6400 -9.7287 -0.1601
14.6600 -9.7421 -0.1597
14.6800 -9.7554 -0.1577
14.7000 -9.7687 -0.1583
14.7200 -9.7821 -0.1549
14.7400 -9.7955 -0.1554
14.7600 -9.8088 -0.1547
14.7800 -9.8221 -0.1559
14.8000 -9.8355 -0.1550
14.8200 -9.8488 -0.1553
14.8400 -9.8622 -0.1543
14.8600 -9.8755 -0.1526
14.8800 -9.8887 -0.1525
14.9000 -9.9020 -0.1524
14.9200 -9.9153 -0.1536
14.9400 -9.9287 -0.1510
14.9600 -9.9420 -0.1539
14.9800 -9.9553 -0.1514
15.0000 -9.9687 -0.1519
15.0200 -9.9821 -0.1497
15.0400 -9.9954 -0.1498
15.0600 -10.0087 -0.1507
15.0800 -10.0221 -0.1511
15.1000 -10.0355 -0.1492
15.1200 -10.0488 -0.1469
15.1400 -10.0621 -0.1468
15.1600 -10.0754 -0.1469
15.1800 -10.0888 -0.1481
15.2000 -10.1022 -0.1469
15.2200 -10.1155 -0.1452
15.2400 -10.1288 -0.1468
15.2600 -10.1421 -0.1461
15.2800 -10.1554 -0.1468
15.3000 -10.1688 -0.1439
15.3200 -10.1821 -0.1459
15.3400 -10.1954 -0.1437
15.3600 -10.2087 -0.1430
15.3800 -10.2221 -0.1418
15.4000 -10.2354 -0.1422
15.4200 -10.2487 -0.1399
15.4400 -10.2621 -0.1421
15.4600 -10.2755 -0.1383
15.4800 -10.2888 -0.1382
15.5000 -10.3021 -0.1380
15.5200 -10.3154 -0.1375
15.5400 -10.3288 -0.1379
15.5600 -10.3421 -0.1361
15.5800 -10.3554 -0.1377
15.6000 -10.3687 -0.1366
15.6200 -10.3821 -0.1369
15.6400 -10.3954 -0.1353
15.6600 -10.4088 -0.1359
15.6800 -10.4220 -0.1333
15.7000 -10.4353 -0.1369
15.7200 -10.4487 -0.1343
15.7400 -10.4621 -0.1351
15.7600 -10.4754 -0.1328
15.7800 -10.4887 -0.1315
15.8000 -10.5021 -0.1333
15.8200 -10.5154 -0.1314
15.8400 -10.5288 -0.1325
15.8600 -10.5421 -0.1302
15.8800 -10.5554 -0.1321
15.9000 -10.5688 -0.1284
15.9200 -10.5821 -0.1304
15.9400 -10.5954 -0.1275
15.9600 -10.6087 -0.1300
15.9800 -10.6221 -0.1284
16.0000 -10.6354 -0.1290
16.0200 -10.6487 -0.1261
16.0400 -10.6620 -0.1261
16.0600 -10.6753 -0.1256
16.0800 -10.6887 -0.1258
16.1000 -10.7021 -0.1256
16.1200 -10.7154 -0.1258
16.1400 -10.7287 -0.1256
16.1600 -10.7421 -0.1240
16.1800 -10.7555 -0.1237
16.2000 -10.7688 -0.1222
16.2200 -10.7821 -0.1226
16.2400 -10.7954 -0.1220
16.2600 -10.8088 -0.1206
16.2800 -10.8222 -0.1240
16.3000 -10.8355 -0.1214
