Raw Data
Time Displacement Force
(s) (mm) (N)
0.0000 0.0000 0.5631
0.0200 0.0000 0.5611
0.0400 0.0008 0.5950
0.0600 0.0040 0.6145
0.0800 0.0095 0.5744
0.1000 0.0152 0.5737
0.1200 0.0211 0.6033
0.1400 0.0277 0.5941
0.1600 0.0350 0.5815
0.1800 0.0425 0.5875
0.2000 0.0497 0.5834
0.2200 0.0565 0.5781
0.2400 0.0632 0.5951
0.2600 0.0699 0.5888
0.2800 0.0766 0.5826
0.3000 0.0833 0.5967
0.3200 0.0900 0.5868
0.3400 0.0967 0.5819
0.3600 0.1034 0.5971
0.3800 0.1100 0.5901
0.4000 0.1167 0.5869
0.4200 0.1234 0.5998
0.4400 0.1301 0.5954
0.4600 0.1367 0.5869
0.4800 0.1434 0.6017
0.5000 0.1501 0.6001
0.5200 0.1568 0.5866
0.5400 0.1634 0.6040
0.5600 0.1700 0.6031
0.5800 0.1766 0.5915
0.6000 0.1833 0.6077
0.6200 0.1900 0.6033
0.6400 0.1968 0.5902
0.6600 0.2034 0.6106
0.6800 0.2101 0.6118
0.7000 0.2168 0.5856
0.7200 0.2234 0.6137
0.7400 0.2300 0.6165
0.7600 0.2366 0.5900
0.7800 0.2433 0.6141
0.8000 0.2500 0.6130
0.8200 0.2567 0.5949
0.8400 0.2634 0.6181
0.8600 0.2701 0.6095
0.8800 0.2768 0.5958
0.9000 0.2834 0.6191
0.9200 0.2900 0.6112
0.9400 0.2966 0.5954
0.9600 0.3033 0.6225
0.9800 0.3100 0.6099
1.0000 0.3167 0.6017
1.0200 0.3234 0.6185
1.0400 0.3300 0.6072
1.0600 0.3367 0.6024
1.0800 0.3434 0.6188
1.1000 0.3500 0.6039
1.1200 0.3566 0.6084
1.1400 0.3633 0.6198
1.1600 0.3700 0.6096
1.1800 0.3767 0.6011
1.2000 0.3834 0.6135
1.2200 0.3901 0.6137
1.2400 0.3968 0.6006
1.2600 0.4035 0.6082
1.2800 0.4101 0.6098
1.3000 0.4167 0.6049
1.3200 0.4234 0.6086
1.3400 0.4300 0.6026
1.3600 0.4367 0.6009
1.3800 0.4434 0.6148
1.4000 0.4501 0.6012
1.4200 0.4567 0.5932
1.4400 0.4634 0.6079
1.4600 0.4700 0.6047
1.4800 0.4766 0.5989
1.5000 0.4833 0.6104
1.5200 0.4900 0.5989
1.5400 0.4967 0.5985
1.5600 0.5034 0.6026
1.5800 0.5101 0.5951
1.6000 0.5168 0.5948
1.6200 0.5234 0.6035
1.6400 0.5300 0.5962
1.6600 0.5366 0.5993
1.6800 0.5433 0.6081
1.7000 0.5500 0.5896
1.7200 0.5567 0.5901
1.7400 0.5634 0.6048
1.7600 0.5700 0.5963
1.7800 0.5767 0.5958
1.8000 0.5834 0.5919
1.8200 0.5900 0.5940
1.8400 0.5967 0.5961
1.8600 0.6033 0.5939
1.8800 0.6100 0.5934
1.9000 0.6167 0.5959
1.9200 0.6234 0.5924
1.9400 0.6301 0.5954
1.9600 0.6368 0.5929
1.9800 0.6434 0.5873
2.0000 0.6500 0.5974
2.0200 0.6566 0.5976
2.0400 0.6633 0.5881
2.0600 0.6700 0.5960
2.0800 0.6767 0.5951
2.1000 0.6834 0.5879
2.1200 0.6901 0.6017
2.1400 0.6968 0.5860
2.1600 0.7034 0.5837
2.1800 0.7100 0.6038
2.2000 0.7166 0.5836
2.2200 0.7233 0.5867
2.2400 0.7300 0.5989
2.2600 0.7367 0.5799
2.2800 0.7434 0.5943
2.3000 0.7501 0.5980
2.3200 0.7567 0.5772
2.3400 0.7634 0.5906
2.3600 0.7700 0.5975
2.3800 0.7766 0.5794
2.4000 0.7833 0.5989
2.4200 0.7900 0.5896
2.4400 0.7967 0.5756
2.4600 0.8034 0.6010
2.4800 0.8101 0.5863
2.5000 0.8168 0.5793
2.5200 0.8234 0.6008
2.5400 0.8300 0.5803
2.5600 0.8366 0.5805
2.5800 0.8433 0.5981
2.6000 0.8500 0.5772
2.6200 0.8568 0.5787
2.6400 0.8635 0.5988
2.6600 0.8701 0.5734
2.6800 0.8768 0.5846
2.7000 0.8834 0.5881
2.7200 0.8900 0.5731
2.7400 0.8967 0.5935
2.7600 0.9033 0.5823
2.7800 0.9100 0.5713
2.8000 0.9168 0.5907
2.8200 0.9234 0.5826
2.8400 0.9301 0.5742
2.8600 0.9368 0.5878
2.8800 0.9434 0.5800
2.9000 0.9500 0.5759
2.9200 0.9567 0.5867
2.9400 0.9633 0.5740
2.9600 0.9700 0.5784
2.9800 0.9767 0.5826
3.0000 0.9834 0.5719
3.0200 0.9901 0.5784
3.0400 0.9968 0.5812
3.0600 1.0034 0.5749
3.0800 1.0100 0.5732
3.1000 1.0166 0.5832
3.1200 1.0233 0.5726
3.1400 1.0300 0.5766
3.1600 1.0367 0.5794
3.1800 1.0434 0.5699
3.2000 1.0500 0.5802
3.2200 1.0567 0.5772
3.2400 1.0634 0.5670
3.2600 1.0700 0.5785
3.2800 1.0766 0.5813
3.3000 1.0833 0.5677
3.3200 1.0900 0.5762
3.3400 1.0967 0.5799
3.3600 1.1034 0.5672
3.3800 1.1101 0.5764
3.4000 1.1168 0.5761
3.4200 1.1235 0.5645
3.4400 1.1301 0.5732
3.4600 1.1367 0.5786
3.4800 1.1433 0.5633
3.5000 1.1500 0.5712
3.5200 1.1567 0.5804
3.5400 1.1634 0.5654
3.5600 1.1701 0.5695
3.5800 1.1768 0.5779
3.6000 1.1834 0.5652
3.6200 1.1900 0.5675
3.6400 1.1966 0.5789
3.6600 1.2033 0.5656
3.6800 1.2100 0.5678
3.7000 1.2167 0.5751
3.7200 1.2234 0.5651
3.7400 1.2301 0.5699
3.7600 1.2367 0.5682
3.7800 1.2434 0.5660
3.8000 1.2500 0.5747
3.8200 1.2567 0.5675
3.8400 1.2633 0.5685
3.8600 1.2700 0.5775
3.8800 1.2767 0.5642
3.9000 1.2834 0.5657
3.9200 1.2900 0.5792
3.9400 1.2967 0.5575
3.9600 1.3034 0.5694
3.9800 1.3101 0.5753
4.0000 1.3167 0.5617
4.0200 1.3233 0.5705
4.0400 1.3300 0.5777
4.0600 1.3367 0.5619
4.0800 1.3434 0.5690
4.1000 1.3501 0.5732
4.1200 1.3568 0.5649
4.1400 1.3634 0.5687
4.1600 1.3701 0.5663
4.1800 1.3767 0.5643
4.2000 1.3833 0.5723
4.2200 1.3900 0.5701
4.2400 1.3967 0.5626
4.2600 1.4034 0.5689
4.2800 1.4101 0.5675
4.3000 1.4168 0.5626
4.3200 1.4235 0.5730
4.3400 1.4301 0.5685
4.3600 1.4367 0.5675
4.3800 1.4433 0.5686
4.4000 1.4500 0.5667
4.4200 1.4567 0.5713
4.4400 1.4634 0.5662
4.4600 1.4701 0.5677
4.4800 1.4768 0.5668
4.5000 1.4834 0.5630
4.5200 1.4901 0.5688
4.5400 1.4967 0.5688
4.5600 1.5033 0.5656
4.5800 1.5100 0.5714
4.6000 1.5167 0.5699
4.6200 1.5234 0.5636
4.6400 1.5301 0.5675
4.6600 1.5368 0.5726
4.6800 1.5434 0.5607
4.7000 1.5501 0.5621
4.7200 1.5566 0.5695
4.7400 1.5633 0.5676
4.7600 1.5700 0.5617
4.7800 1.5768 0.5653
4.8000 1.5835 0.5662
4.8200 1.5901 0.5613
4.8400 1.5968 0.5635
4.8600 1.6035 0.5664
4.8800 1.6101 0.5586
4.9000 1.6166 0.5659
4.9200 1.6233 0.5638
4.9400 1.6300 0.5622
4.9600 1.6367 0.5668
4.9800 1.6434 0.5564
5.0000 1.6501 0.5565
5.0200 1.6568 0.5721
5.0400 1.6635 0.5555
5.0600 1.6701 0.5541
5.0800 1.6767 0.5709
5.1000 1.6833 0.5566
5.1200 1.6900 0.5568
5.1400 1.6967 0.5658
5.1600 1.7034 0.5558
5.1800 1.7101 0.5585
5.2000 1.7168 0.5602
5.2200 1.7235 0.5531
5.2400 1.7301 0.5635
5.2600 1.7367 0.5572
5.2800 1.7433 0.5466
5.3000 1.7500 0.5642
5.3200 1.7567 0.5629
5.3400 1.7634 0.5452
5.3600 1.7700 0.5577
5.3800 1.7767 0.5600
5.4000 1.7834 0.5499
5.4200 1.7900 0.5561
5.4400 1.7967 0.5564
5.4600 1.8033 0.5442
5.4800 1.8100 0.5621
5.5000 1.8167 0.5627
5.5200 1.8234 0.5362
5.5400 1.8301 0.5554
5.5600 1.8368 0.5662
5.5800 1.8435 0.5433
5.6000 1.8501 0.5435
5.6200 1.8567 0.5622
5.6400 1.8633 0.5590
5.6600 1.8700 0.5477
5.6800 1.8767 0.5503
5.7000 1.8834 0.5470
5.7200 1.8901 0.5569
5.7400 1.8968 0.5575
5.7600 1.9035 0.5419
5.7800 1.9101 0.5508
5.8000 1.9167 0.5561
5.8200 1.9233 0.5476
5.8400 1.9300 0.5510
5.8600 1.9367 0.5470
5.8800 1.9434 0.5533
5.9000 1.9500 0.5556
5.9200 1.9567 0.5329
5.9400 1.9634 0.5540
5.9600 1.9700 0.5586
5.9800 1.9767 0.5298
6.0000 1.9833 0.5539
6.0200 1.9900 0.5589
6.0400 1.9967 0.5358
6.0600 2.0034 0.5509
6.0800 2.0101 0.5467
6.1000 2.0168 0.5368
6.1200 2.0235 0.5612
6.1400 2.0301 0.5406
6.1600 2.0367 0.5288
6.1800 2.0433 0.5587
6.2000 2.0500 0.5438
6.2200 2.0567 0.5371
6.2400 2.0634 0.5528
6.2600 2.0701 0.5388
6.2800 2.0768 0.5433
6.3000 2.0835 0.5498
6.3200 2.0901 0.5314
6.3400 2.0967 0.5462
6.3600 2.1033 0.5550
6.3800 2.1100 0.5266
6.4000 2.1167 0.5450
6.4200 2.1234 0.5510
6.4400 2.1301 0.5309
6.4600 2.1368 0.5413
6.4800 2.1435 0.5447
6.5000 2.1501 0.5393
6.5200 2.1567 0.5418
6.5400 2.1633 0.5459
6.5600 2.1700 0.5317
6.5800 2.1767 0.5414
6.6000 2.1834 0.5501
6.6200 2.1901 0.5333
6.6400 2.1968 0.5430
6.6600 2.2035 0.5406
6.6800 2.2101 0.5364
6.7000 2.2167 0.5397
6.7200 2.2233 0.5447
6.7400 2.2299 0.5390
6.7600 2.2366 0.5359
6.7800 2.2434 0.5468
6.8000 2.2501 0.5380
6.8200 2.2568 0.5364
6.8400 2.2634 0.5502
6.8600 2.2701 0.5394
6.8800 2.2767 0.5336
6.9000 2.2833 0.5423
6.9200 2.2900 0.5424
6.9400 2.2967 0.5365
6.9600 2.3034 0.5449
6.9800 2.3101 0.5336
7.0000 2.3168 0.5414
7.0200 2.3234 0.5437
7.0400 2.3301 0.5305
7.0600 2.3367 0.5384
7.0800 2.3433 0.5439
7.1000 2.3500 0.5360
7.1200 2.3567 0.5394
7.1400 2.3634 0.5399
7.1600 2.3701 0.5372
7.1800 2.3768 0.5369
7.2000 2.3835 0.5390
7.2200 2.3901 0.5336
7.2400 2.3967 0.5424
7.2600 2.4033 0.5356
7.2800 2.4100 0.5325
7.3000 2.4167 0.5405
7.3200 2.4234 0.5369
7.3400 2.4301 0.5354
7.3600 2.4368 0.5357
7.3800 2.4434 0.5313
7.4000 2.4501 0.5386
7.4200 2.4567 0.5356
7.4400 2.4633 0.5324
7.4600 2.4700 0.5398
7.4800 2.4767 0.5311
7.5000 2.4833 0.5249
7.5200 2.4900 0.5386
7.5400 2.4967 0.5348
7.5600 2.5034 0.5266
7.5800 2.5101 0.5397
7.6000 2.5167 0.5222
7.6200 2.5233 0.5285
7.6400 2.5300 0.5439
7.6600 2.5367 0.5233
7.6800 2.5434 0.5247
7.7000 2.5501 0.5405
7.7200 2.5568 0.5260
7.7400 2.5635 0.5217
7.7600 2.5701 0.5298
7.7800 2.5767 0.5276
7.8000 2.5833 0.5205
7.8200 2.5900 0.5341
7.8400 2.5967 0.5221
7.8600 2.6034 0.5260
7.8800 2.6101 0.5327
7.9000 2.6168 0.5243
7.9200 2.6234 0.5258
7.9400 2.6301 0.5282
7.9600 2.6367 0.5206
7.9800 2.6433 0.5242
8.0000 2.6500 0.5326
8.0200 2.6567 0.5213
8.0400 2.6634 0.5154
8.0600 2.6700 0.5323
8.0800 2.6767 0.5133
8.1000 2.6834 0.5209
8.1200 2.6901 0.5302
8.1400 2.6967 0.5127
8.1600 2.7033 0.5214
8.1800 2.7099 0.5277
8.2000 2.7166 0.5168
8.2200 2.7234 0.5183
8.2400 2.7301 0.5282
8.2600 2.7368 0.5146
8.2800 2.7434 0.5162
8.3000 2.7501 0.5253
8.3200 2.7567 0.5151
8.3400 2.7633 0.5210
8.3600 2.7699 0.5260
8.3800 2.7767 0.5114
8.4000 2.7834 0.5209
8.4200 2.7901 0.5240
8.4400 2.7968 0.5093
8.4600 2.8034 0.5202
8.4800 2.8101 0.5261
8.5000 2.8167 0.5073
8.5200 2.8233 0.5174
8.5400 2.8300 0.5255
8.5600 2.8367 0.5089
8.5800 2.8434 0.5186
8.6000 2.8501 0.5219
8.6200 2.8568 0.5072
8.6400 2.8635 0.5192
8.6600 2.8701 0.5185
8.6800 2.8768 0.5120
8.7000 2.8834 0.5181
8.7200 2.8900 0.5201
8.7400 2.8967 0.5106
8.7600 2.9034 0.5169
8.7800 2.9101 0.5178
8.8000 2.9167 0.5109
8.8200 2.9234 0.5166
8.8400 2.9301 0.5206
8.8600 2.9367 0.5116
8.8800 2.9433 0.5170
8.9000 2.9499 0.5188
8.9200 2.9566 0.5152
8.9400 2.9633 0.5113
8.9600 2.9700 0.5196
8.9800 2.9767 0.5160
9.0000 2.9834 0.5122
9.0200 2.9901 0.5204
9.0400 2.9967 0.5128
9.0600 3.0033 0.5143
9.0800 3.0100 0.5197
9.1000 3.0167 0.5181
9.1200 3.0234 0.5115
9.1400 3.0301 0.5208
9.1600 3.0368 0.5160
9.1800 3.0435 0.5116
9.2000 3.0501 0.5238
9.2200 3.0568 0.5111
9.2400 3.0634 0.5123
9.2600 3.0700 0.5231
9.2800 3.0767 0.5090
9.3000 3.0834 0.5160
9.3200 3.0901 0.5194
9.3400 3.0968 0.5089
9.3600 3.1035 0.5183
9.3800 3.1101 0.5204
9.4000 3.1167 0.5073
9.4200 3.1233 0.5169
9.4400 3.1300 0.5222
9.4600 3.1367 0.5090
9.4800 3.1434 0.5159
9.5000 3.1501 0.5206
9.5200 3.1567 0.5086
9.5400 3.1634 0.5206
9.5600 3.1701 0.5219
9.5800 3.1768 0.5094
9.6000 3.1834 0.5160
9.6200 3.1900 0.5182
9.6400 3.1967 0.5109
9.6600 3.2034 0.5160
9.6800 3.2100 0.5167
9.7000 3.2167 0.5112
9.7200 3.2234 0.5153
9.7400 3.2300 0.5169
9.7600 3.2367 0.5101
9.7800 3.2433 0.5138
9.8000 3.2499 0.5171
9.8200 3.2567 0.5124
9.8400 3.2634 0.5123
9.8600 3.2701 0.5083
9.8800 3.2768 0.5122
9.9000 3.2835 0.5127
9.9200 3.2901 0.5140
9.9400 3.2967 0.5097
9.9600 3.3033 0.5086
9.9800 3.3100 0.5158
10.0000 3.3167 0.5165
10.0200 3.3234 0.5079
10.0400 3.3301 0.5096
10.0600 3.3368 0.5172
10.0800 3.3435 0.5041
10.1000 3.3501 0.5056
10.1200 3.3567 0.5192
10.1400 3.3633 0.5001
10.1600 3.3700 0.5079
10.1800 3.3766 0.5200
10.2000 3.3833 0.5051
10.2200 3.3900 0.5051
10.2400 3.3967 0.5173
10.2600 3.4034 0.5052
10.2800 3.4101 0.5008
10.3000 3.4167 0.5089
10.3200 3.4233 0.5053
10.3400 3.4299 0.5068
10.3600 3.4366 0.5092
10.3800 3.4433 0.5006
10.4000 3.4500 0.5039
10.4200 3.4567 0.5090
10.4400 3.4634 0.5047
10.4600 3.4701 0.5032
10.4800 3.4767 0.5095
10.5000 3.4834 0.5019
10.5200 3.4900 0.4969
10.5400 3.4966 0.5147
10.5600 3.5034 0.5082
10.5800 3.5101 0.4969
10.6000 3.5167 0.5064
10.6200 3.5234 0.5034
10.6400 3.5301 0.4999
10.6600 3.5368 0.5083
10.6800 3.5434 0.4971
10.7000 3.5500 0.5000
10.7200 3.5567 0.5088
10.7400 3.5633 0.5001
10.7600 3.5701 0.4955
10.7800 3.5767 0.5122
10.8000 3.5834 0.4936
10.8200 3.5901 0.4975
10.8400 3.5968 0.5104
10.8600 3.6034 0.4985
10.8800 3.6100 0.5010
10.9000 3.6167 0.5082
10.9200 3.6234 0.4916
10.9400 3.6301 0.5060
10.9600 3.6368 0.5020
10.9800 3.6434 0.4922
11.0000 3.6501 0.5089
11.0200 3.6567 0.5003
11.0400 3.6633 0.4939
11.0600 3.6699 0.5080
11.0800 3.6766 0.4920
11.1000 3.6833 0.4987
11.1200 3.6900 0.5103
11.1400 3.6967 0.4845
11.1600 3.7034 0.4998
11.1800 3.7101 0.5063
11.2000 3.7167 0.4869
11.2200 3.7233 0.5016
11.2400 3.7300 0.5021
11.2600 3.7366 0.4891
11.2800 3.7433 0.5032
11.3000 3.7501 0.5003
11.3200 3.7568 0.4945
11.3400 3.7635 0.5065
11.3600 3.7702 0.4925
11.3800 3.7768 0.4903
11.4000 3.7834 0.5062
11.4200 3.7900 0.4909
11.4400 3.7967 0.4937
11.4600 3.8034 0.5018
11.4800 3.8101 0.4861
11.5000 3.8168 0.4995
11.5200 3.8235 0.5046
11.5400 3.8301 0.4887
11.5600 3.8368 0.5026
11.5800 3.8434 0.4963
11.6000 3.8500 0.4888
11.6200 3.8566 0.5003
11.6400 3.8633 0.4940
11.6600 3.8700 0.4852
11.6800 3.8767 0.5048
11.7000 3.8834 0.4897
11.7200 3.8901 0.4883
11.7400 3.8967 0.5052
11.7600 3.9033 0.4829
11.7800 3.9099 0.4914
11.8000 3.9166 0.5021
11.8200 3.9233 0.4829
11.8400 3.9300 0.4919
11.8600 3.9367 0.4948
11.8800 3.9434 0.4864
11.9000 3.9501 0.4924
11.9200 3.9567 0.4877
11.9400 3.9634 0.4884
11.9600 3.9700 0.4959
11.9800 3.9766 0.4929
12.0000 3.9834 0.4845
12.0200 3.9901 0.4914
12.0400 3.9968 0.4856
12.0600 4.0034 0.4869
12.0800 4.0101 0.4928
12.1000 4.0168 0.4889
12.1200 4.0234 0.4888
12.1400 4.0300 0.4888
12.1600 4.0367 0.4873
12.1800 4.0434 0.4941
12.2000 4.0501 0.4858
12.2200 4.0567 0.4862
12.2400 4.0634 0.4920
12.2600 4.0701 0.4824
12.2800 4.0768 0.4866
12.3000 4.0834 0.4919
12.3200 4.0900 0.4786
12.3400 4.0966 0.4862
12.3600 4.1033 0.4898
12.3800 4.1100 0.4813
12.4000 4.1167 0.4924
12.4200 4.1234 0.4895
12.4400 4.1301 0.4784
12.4600 4.1368 0.4892
12.4800 4.1434 0.4834
12.5000 4.1500 0.4826
12.5200 4.1566 0.4853
12.5400 4.1633 0.4845
12.5600 4.1700 0.4798
12.5800 4.1767 0.4877
12.6000 4.1834 0.4883
12.6200 4.1901 0.4776
12.6400 4.1968 0.4885
12.6600 4.2034 0.4839
12.6800 4.2100 0.4762
12.7000 4.2167 0.4891
12.7200 4.2233 0.4826
12.7400 4.2300 0.4764
12.7600 4.2367 0.4823
12.7800 4.2434 0.4837
12.8000 4.2501 0.4764
12.8200 4.2568 0.4811
12.8400 4.2634 0.4877
12.8600 4.2700 0.4781
12.8800 4.2766 0.4839
12.9000 4.2833 0.4824
12.9200 4.2901 0.4764
12.9400 4.2968 0.4797
12.9600 4.3035 0.4810
12.9800 4.3101 0.4755
13.0000 4.3168 0.4824
13.0200 4.3234 0.4771
13.0400 4.3300 0.4800
13.0600 4.3367 0.4842
13.0800 4.3434 0.4793
13.1000 4.3501 0.4755
13.1200 4.3567 0.4802
13.1400 4.3634 0.4793
13.1600 4.3701 0.4758
13.1800 4.3768 0.4771
13.2000 4.3834 0.4755
13.2200 4.3900 0.4766
13.2400 4.3966 0.4773
13.2600 4.4033 0.4788
13.2800 4.4100 0.4785
13.3000 4.4167 0.4738
13.3200 4.4234 0.4800
13.3400 4.4301 0.4719
13.3600 4.4368 0.4739
13.3800 4.4434 0.4764
13.4000 4.4500 0.4776
13.4200 4.4566 0.4751
13.4400 4.4633 0.4752
13.4600 4.4701 0.4786
13.4800 4.4768 0.4737
13.5000 4.4835 0.4772
13.5200 4.4901 0.4750
13.5400 4.4968 0.4743
13.5600 4.5034 0.4757
13.5800 4.5100 0.4737
13.6000 4.5167 0.4784
13.6200 4.5234 0.4735
13.6400 4.5301 0.4708
13.6600 4.5368 0.4777
13.6800 4.5434 0.4686
13.7000 4.5501 0.4756
13.7200 4.5567 0.4779
13.7400 4.5634 0.4733
13.7600 4.5700 0.4695
13.7800 4.5766 0.4753
13.8000 4.5833 0.4707
13.8200 4.5900 0.4712
13.8400 4.5967 0.4713
13.8600 4.6034 0.4752
13.8800 4.6101 0.4698
13.9000 4.6168 0.4702
13.9200 4.6234 0.4750
13.9400 4.6300 0.4747
13.9600 4.6366 0.4730
13.9800 4.6433 0.4711
14.0000 4.6500 0.4737
14.0200 4.6567 0.4690
14.0400 4.6634 0.4712
14.0600 4.6700 0.4729
14.0800 4.6767 0.4689
14.1000 4.6834 0.4712
14.1200 4.6900 0.4692
14.1400 4.6966 0.4758
14.1600 4.7034 0.4741
14.1800 4.7101 0.4699
14.2000 4.7168 0.4719
14.2200 4.7234 0.4715
14.2400 4.7301 0.4692
14.2600 4.7368 0.4681
14.2800 4.7435 0.4703
14.3000 4.7501 0.4680
14.3200 4.7567 0.4709
14.3400 4.7633 0.4739
14.3600 4.7700 0.4700
14.3800 4.7767 0.4666
14.4000 4.7835 0.4770
14.4200 4.7902 0.4678
14.4400 4.7968 0.4635
14.4600 4.8034 0.4760
14.4800 4.8100 0.4700
14.5000 4.8166 0.4670
14.5200 4.8233 0.4777
14.5400 4.8300 0.4624
14.5600 4.8367 0.4683
14.5800 4.8434 0.4768
14.6000 4.8500 0.4637
14.6200 4.8567 0.4697
14.6400 4.8634 0.4757
14.6600 4.8700 0.4609
14.6800 4.8766 0.4702
14.7000 4.8833 0.4703
14.7200 4.8900 0.4628
14.7400 4.8967 0.4697
14.7600 4.9034 0.4731
14.7800 4.9100 0.4608
14.8000 4.9167 0.4699
14.8200 4.9234 0.4682
14.8400 4.9300 0.4653
14.8600 4.9367 0.4751
14.8800 4.9433 0.4647
14.9000 4.9500 0.4631
14.9200 4.9567 0.4712
14.9400 4.9634 0.4632
14.9600 4.9701 0.4645
14.9800 4.9768 0.4703
15.0000 4.9834 0.4584
15.0200 4.9900 0.4633
15.0400 4.9966 0.4732
15.0600 5.0033 0.4630
15.0800 5.0100 0.4682
15.1000 5.0167 0.4685
15.1200 5.0234 0.4562
15.1400 5.0301 0.4687
15.1600 5.0368 0.4674
15.1800 5.0434 0.4587
15.2000 5.0500 0.4666
15.2200 5.0567 0.4652
15.2400 5.0633 0.4563
15.2600 5.0700 0.4702
15.2800 5.0767 0.4689
15.3000 5.0834 0.4541
15.3200 5.0901 0.4642
15.3400 5.0968 0.4617
15.3600 5.1034 0.4530
15.3800 5.1100 0.4693
15.4000 5.1166 0.4588
15.4200 5.1233 0.4562
15.4400 5.1300 0.4698
15.4600 5.1367 0.4583
15.4800 5.1434 0.4543
15.5000 5.1500 0.4720
15.5200 5.1567 0.4569
15.5400 5.1634 0.4551
15.5600 5.1700 0.4666
15.5800 5.1766 0.4573
15.6000 5.1833 0.4583
15.6200 5.1900 0.4685
15.6400 5.1967 0.4485
15.6600 5.2034 0.4564
15.6800 5.2101 0.4701
15.7000 5.2168 0.4506
15.7200 5.2235 0.4573
15.7400 5.2301 0.4663
15.7600 5.2367 0.4554
15.7800 5.2434 0.4561
15.8000 5.2501 0.4621
15.8200 5.2568 0.4532
15.8400 5.2634 0.4551
15.8600 5.2701 0.4634
15.8800 5.2768 0.4508
15.9000 5.2834 0.4577
15.9200 5.2900 0.4678
15.9400 5.2966 0.4548
15.9600 5.3033 0.4591
15.9800 5.3100 0.4618
16.0000 5.3167 0.4532
16.0200 5.3234 0.4554
16.0400 5.3301 0.4631
16.0600 5.3368 0.4508
16.0800 5.3434 0.4545
16.1000 5.3500 0.4651
16.1200 5.3566 0.4543
16.1400 5.3633 0.4601
16.1600 5.3700 0.4627
16.1800 5.3768 0.4508
16.2000 5.3834 0.4525
16.2200 5.3901 0.4614
16.2400 5.3967 0.4552
16.2600 5.4034 0.4519
16.2800 5.4101 0.4613
16.3000 5.4167 0.4501
16.3200 5.4234 0.4548
16.3400 5.4300 0.4623
16.3600 5.4367 0.4525
16.3800 5.4434 0.4538
16.4000 5.4501 0.4625
16.4200 5.4568 0.4517
16.4400 5.4634 0.4482
16.4600 5.4701 0.4596
16.4800 5.4767 0.4520
16.5000 5.4833 0.4523
16.5200 5.4900 0.4623
16.5400 5.4968 0.4480
16.5600 5.5034 0.4569
16.5800 5.5101 0.4585
16.6000 5.5168 0.4520
16.6200 5.5234 0.4583
16.6400 5.5300 0.4525
16.6600 5.5366 0.4561
16.6800 5.5433 0.4530
16.7000 5.5500 0.4545
16.7200 5.5567 0.4509
16.7400 5.5634 0.4491
16.7600 5.5701 0.4557
16.7800 5.5767 0.4572
16.8000 5.5834 0.4557
16.8200 5.5901 0.4478
16.8400 5.5967 0.4561
16.8600 5.6033 0.4535
16.8800 5.6100 0.4446
16.9000 5.6167 0.4568
16.9200 5.6233 0.4502
16.9400 5.6301 0.4509
16.9600 5.6368 0.4511
16.9800 5.6435 0.4486
17.0000 5.6501 0.4546
17.0200 5.6567 0.4573
17.0400 5.6633 0.4478
17.0600 5.6700 0.4509
17.0800 5.6767 0.4540
17.1000 5.6834 0.4439
17.1200 5.6901 0.4506
17.1400 5.6968 0.4566
17.1600 5.7034 0.4445
17.1800 5.7100 0.4466
17.2000 5.7167 0.4517
17.2200 5.7233 0.4497
17.2400 5.7300 0.4521
17.2600 5.7367 0.4498
17.2800 5.7434 0.4445
17.3000 5.7501 0.4513
17.3200 5.7568 0.4457
17.3400 5.7635 0.4432
17.3600 5.7701 0.4514
17.3800 5.7767 0.4443
17.4000 5.7833 0.4448
17.4200 5.7900 0.4501
17.4400 5.7967 0.4451
17.4600 5.8034 0.4393
17.4800 5.8101 0.4507
17.5000 5.8168 0.4444
17.5200 5.8234 0.4460
17.5400 5.8300 0.4463
17.5600 5.8366 0.4440
17.5800 5.8432 0.4481
17.6000 5.8500 0.4475
17.6200 5.8567 0.4430
17.6400 5.8634 0.4397
17.6600 5.8701 0.4489
17.6800 5.8767 0.4440
17.7000 5.8834 0.4398
17.7200 5.8901 0.4462
17.7400 5.8967 0.4439
17.7600 5.9033 0.4405
