Raw Data
Time Displacement Force
(s) (mm) (N)
0.0000 0.0000 -0.1742
0.0200 0.0001 -0.1552
0.0400 0.0022 -0.0857
0.0600 0.0101 -0.1004
0.0800 0.0221 -0.1796
0.1000 0.0346 -0.1688
0.1200 0.0473 -0.1379
0.1400 0.0607 -0.1733
0.1600 0.0748 -0.1621
0.1800 0.0889 -0.1560
0.2000 0.1028 -0.1808
0.2200 0.1164 -0.1614
0.2400 0.1297 -0.1566
0.2600 0.1430 -0.1772
0.2800 0.1564 -0.1519
0.3000 0.1698 -0.1587
0.3200 0.1831 -0.1775
0.3400 0.1965 -0.1478
0.3600 0.2098 -0.1627
0.3800 0.2232 -0.1698
0.4000 0.2365 -0.1558
0.4200 0.2498 -0.1660
0.4400 0.2631 -0.1714
0.4600 0.2764 -0.1581
0.4800 0.2898 -0.1706
0.5000 0.3031 -0.1729
0.5200 0.3164 -0.1594
0.5400 0.3297 -0.1682
0.5600 0.3431 -0.1734
0.5800 0.3564 -0.1598
0.6000 0.3698 -0.1722
0.6200 0.3832 -0.1778
0.6400 0.3965 -0.1615
0.6600 0.4099 -0.1763
0.6800 0.4232 -0.1784
0.7000 0.4366 -0.1671
0.7200 0.4499 -0.1809
0.7400 0.4632 -0.1776
0.7600 0.4766 -0.1673
0.7800 0.4899 -0.1843
0.8000 0.5032 -0.1795
0.8200 0.5165 -0.1695
0.8400 0.5298 -0.1874
0.8600 0.5432 -0.1808
0.8800 0.5564 -0.1768
0.9000 0.5697 -0.1863
0.9200 0.5831 -0.1798
0.9400 0.5964 -0.1772
0.9600 0.6098 -0.1920
0.9800 0.6231 -0.1800
1.0000 0.6364 -0.1789
1.0200 0.6498 -0.1873
1.0400 0.6632 -0.1887
1.0600 0.6765 -0.1828
1.0800 0.6898 -0.1875
1.1000 0.7032 -0.1893
1.1200 0.7165 -0.1826
1.1400 0.7298 -0.1906
1.1600 0.7431 -0.1869
1.1800 0.7565 -0.1828
1.2000 0.7698 -0.1954
1.2200 0.7832 -0.1909
1.2400 0.7965 -0.1890
1.2600 0.8098 -0.1948
1.2800 0.8231 -0.1912
1.3000 0.8365 -0.1944
1.3200 0.8498 -0.1998
1.3400 0.8631 -0.1955
1.3600 0.8765 -0.1948
1.3800 0.8898 -0.1998
1.4000 0.9032 -0.1989
1.4200 0.9165 -0.2041
1.4400 0.9298 -0.2004
1.4600 0.9432 -0.2039
1.4800 0.9565 -0.2034
1.5000 0.9699 -0.2037
1.5200 0.9832 -0.2051
1.5400 0.9965 -0.2035
1.5600 1.0098 -0.2091
1.5800 1.0231 -0.2108
1.6000 1.0364 -0.2082
1.6200 1.0497 -0.2111
1.6400 1.0631 -0.2139
1.6600 1.0764 -0.2119
1.6800 1.0898 -0.2143
1.7000 1.1031 -0.2191
1.7200 1.1165 -0.2101
1.7400 1.1299 -0.2148
1.7600 1.1432 -0.2207
1.7800 1.1566 -0.2190
1.8000 1.1699 -0.2163
1.8200 1.1832 -0.2200
1.8400 1.1965 -0.2234
1.8600 1.2099 -0.2183
1.8800 1.2232 -0.2229
1.9000 1.2365 -0.2241
1.9200 1.2498 -0.2182
1.9400 1.2632 -0.2287
1.9600 1.2765 -0.2282
1.9800 1.2898 -0.2158
2.0000 1.3031 -0.2287
2.0200 1.3164 -0.2341
2.0400 1.3298 -0.2121
2.0600 1.3431 -0.2267
2.0800 1.3565 -0.2399
2.1000 1.3698 -0.2176
2.1200 1.3832 -0.2285
2.1400 1.3966 -0.2379
2.1600 1.4099 -0.2177
2.1800 1.4232 -0.2310
2.2000 1.4365 -0.2422
2.2200 1.4499 -0.2212
2.2400 1.4631 -0.2241
2.2600 1.4764 -0.2409
2.2800 1.4898 -0.2368
2.3000 1.5031 -0.2180
2.3200 1.5164 -0.2356
2.3400 1.5297 -0.2378
2.3600 1.5431 -0.2171
2.3800 1.5565 -0.2427
2.4000 1.5699 -0.2441
2.4200 1.5832 -0.2268
2.4400 1.5965 -0.2414
2.4600 1.6098 -0.2454
2.4800 1.6232 -0.2262
2.5000 1.6365 -0.2380
2.5200 1.6498 -0.2480
2.5400 1.6631 -0.2266
2.5600 1.6765 -0.2384
2.5800 1.6899 -0.2511
2.6000 1.7032 -0.2284
2.6200 1.7165 -0.2369
2.6400 1.7299 -0.2462
2.6600 1.7432 -0.2356
2.6800 1.7565 -0.2461
2.7000 1.7698 -0.2470
2.7200 1.7831 -0.2369
2.7400 1.7965 -0.2524
2.7600 1.8098 -0.2411
2.7800 1.8231 -0.2396
2.8000 1.8364 -0.2551
2.8200 1.8498 -0.2405
2.8400 1.8632 -0.2439
2.8600 1.8765 -0.2569
2.8800 1.8898 -0.2380
2.9000 1.9032 -0.2451
2.9200 1.9165 -0.2564
2.9400 1.9299 -0.2428
2.9600 1.9432 -0.2541
2.9800 1.9565 -0.2585
3.0000 1.9698 -0.2389
3.0200 1.9832 -0.2571
3.0400 1.9965 -0.2636
3.0600 2.0098 -0.2412
3.0800 2.0231 -0.2554
3.1000 2.0364 -0.2593
3.1200 2.0498 -0.2481
3.1400 2.0631 -0.2622
3.1600 2.0765 -0.2592
3.1800 2.0898 -0.2490
3.2000 2.1032 -0.2596
3.2200 2.1166 -0.2654
3.2400 2.1299 -0.2508
3.2600 2.1432 -0.2555
3.2800 2.1566 -0.2706
3.3000 2.1699 -0.2509
3.3200 2.1832 -0.2591
3.3400 2.1965 -0.2692
3.3600 2.2098 -0.2572
3.3800 2.2232 -0.2626
3.4000 2.2365 -0.2706
3.4200 2.2498 -0.2615
3.4400 2.2631 -0.2632
3.4600 2.2765 -0.2719
3.4800 2.2898 -0.2620
3.5000 2.3032 -0.2687
3.5200 2.3165 -0.2749
3.5400 2.3298 -0.2600
3.5600 2.3432 -0.2702
3.5800 2.3565 -0.2741
3.6000 2.3699 -0.2563
3.6200 2.3832 -0.2759
3.6400 2.3965 -0.2740
3.6600 2.4099 -0.2651
3.6800 2.4232 -0.2724
3.7000 2.4365 -0.2745
3.7200 2.4498 -0.2694
3.7400 2.4632 -0.2757
3.7600 2.4765 -0.2740
3.7800 2.4898 -0.2710
3.8000 2.5031 -0.2735
3.8200 2.5164 -0.2712
3.8400 2.5298 -0.2803
3.8600 2.5431 -0.2748
3.8800 2.5564 -0.2723
3.9000 2.5698 -0.2785
3.9200 2.5832 -0.2669
3.9400 2.5966 -0.2768
3.9600 2.6099 -0.2825
3.9800 2.6232 -0.2639
4.0000 2.6365 -0.2763
4.0200 2.6499 -0.2806
4.0400 2.6632 -0.2669
4.0600 2.6765 -0.2842
4.0800 2.6898 -0.2826
4.1000 2.7032 -0.2709
4.1200 2.7165 -0.2875
4.1400 2.7298 -0.2837
4.1600 2.7431 -0.2694
4.1800 2.7564 -0.2925
4.2000 2.7698 -0.2816
4.2200 2.7831 -0.2719
4.2400 2.7964 -0.2926
4.2600 2.8098 -0.2810
4.2800 2.8232 -0.2780
4.3000 2.8365 -0.2930
4.3200 2.8499 -0.2829
4.3400 2.8632 -0.2842
4.3600 2.8765 -0.2954
4.3800 2.8899 -0.2862
4.4000 2.9032 -0.2815
4.4200 2.9165 -0.3002
4.4400 2.9298 -0.2801
4.4600 2.9431 -0.2841
4.4800 2.9565 -0.3019
4.5000 2.9698 -0.2815
4.5200 2.9831 -0.2859
4.5400 2.9965 -0.3046
4.5600 3.0098 -0.2849
4.5800 3.0231 -0.2877
4.6000 3.0365 -0.2982
4.6200 3.0498 -0.2834
4.6400 3.0631 -0.2938
4.6600 3.0765 -0.3002
4.6800 3.0898 -0.2896
4.7000 3.1031 -0.2951
4.7200 3.1165 -0.2992
4.7400 3.1299 -0.2903
4.7600 3.1432 -0.2970
4.7800 3.1565 -0.2985
4.8000 3.1699 -0.2907
4.8200 3.1832 -0.2953
4.8400 3.1965 -0.3015
4.8600 3.2098 -0.2945
4.8800 3.2231 -0.2966
4.9000 3.2364 -0.3043
4.9200 3.2498 -0.2924
4.9400 3.2631 -0.2942
4.9600 3.2764 -0.3104
4.9800 3.2898 -0.2989
5.0000 3.3032 -0.2970
5.0200 3.3166 -0.3103
5.0400 3.3299 -0.3019
5.0600 3.3432 -0.2935
5.0800 3.3566 -0.3142
5.1000 3.3699 -0.3039
5.1200 3.3832 -0.2975
5.1400 3.3965 -0.3161
5.1600 3.4098 -0.3009
5.1800 3.4231 -0.2966
5.2000 3.4365 -0.3145
5.2200 3.4498 -0.3009
5.2400 3.4631 -0.3027
5.2600 3.4764 -0.3137
5.2800 3.4898 -0.3046
5.3000 3.5031 -0.3026
5.3200 3.5164 -0.3128
5.3400 3.5298 -0.3060
5.3600 3.5432 -0.3083
5.3800 3.5566 -0.3166
5.4000 3.5699 -0.3062
5.4200 3.5832 -0.3110
5.4400 3.5965 -0.3102
5.4600 3.6099 -0.3064
5.4800 3.6232 -0.3083
5.5000 3.6365 -0.3071
5.5200 3.6498 -0.3094
5.5400 3.6631 -0.3140
5.5600 3.6765 -0.3123
5.5800 3.6898 -0.3145
5.6000 3.7031 -0.3102
5.6200 3.7164 -0.3098
5.6400 3.7298 -0.3207
5.6600 3.7431 -0.3080
5.6800 3.7565 -0.3136
5.7000 3.7698 -0.3205
5.7200 3.7832 -0.3075
5.7400 3.7965 -0.3172
5.7600 3.8099 -0.3222
5.7800 3.8232 -0.3022
5.8000 3.8365 -0.3136
5.8200 3.8499 -0.3289
5.8400 3.8632 -0.3057
5.8600 3.8765 -0.3136
5.8800 3.8898 -0.3296
5.9000 3.9032 -0.3026
5.9200 3.9165 -0.3138
5.9400 3.9298 -0.3344
5.9600 3.9431 -0.3072
5.9800 3.9564 -0.3148
6.0000 3.9698 -0.3326
6.0200 3.9831 -0.3091
6.0400 3.9965 -0.3198
6.0600 4.0098 -0.3226
6.0800 4.0232 -0.3107
6.1000 4.0366 -0.3281
6.1200 4.0499 -0.3183
6.1400 4.0632 -0.3167
6.1600 4.0765 -0.3266
6.1800 4.0899 -0.3170
6.2000 4.1032 -0.3228
6.2200 4.1165 -0.3275
6.2400 4.1298 -0.3172
6.2600 4.1431 -0.3238
6.2800 4.1565 -0.3268
6.3000 4.1698 -0.3215
6.3200 4.1831 -0.3274
6.3400 4.1965 -0.3210
6.3600 4.2098 -0.3222
6.3800 4.2231 -0.3287
6.4000 4.2364 -0.3235
6.4200 4.2498 -0.3299
6.4400 4.2631 -0.3293
6.4600 4.2765 -0.3246
6.4800 4.2899 -0.3369
6.5000 4.3032 -0.3297
6.5200 4.3165 -0.3237
6.5400 4.3299 -0.3376
6.5600 4.3432 -0.3329
6.5800 4.3565 -0.3239
6.6000 4.3698 -0.3403
6.6200 4.3831 -0.3275
6.6400 4.3965 -0.3294
6.6600 4.4098 -0.3393
6.6800 4.4231 -0.3302
6.7000 4.4364 -0.3331
6.7200 4.4498 -0.3369
6.7400 4.4631 -0.3276
6.7600 4.4764 -0.3346
6.7800 4.4898 -0.3321
6.8000 4.5032 -0.3312
6.8200 4.5165 -0.3375
6.8400 4.5299 -0.3347
6.8600 4.5432 -0.3383
6.8800 4.5565 -0.3351
6.9000 4.5698 -0.3339
6.9200 4.5832 -0.3368
6.9400 4.5965 -0.3394
6.9600 4.6098 -0.3327
6.9800 4.6231 -0.3358
7.0000 4.6365 -0.3385
7.0200 4.6498 -0.3335
7.0400 4.6631 -0.3375
7.0600 4.6764 -0.3354
7.0800 4.6897 -0.3371
7.1000 4.7031 -0.3383
7.1200 4.7164 -0.3372
7.1400 4.7298 -0.3345
7.1600 4.7432 -0.3393
7.1800 4.7566 -0.3380
7.2000 4.7699 -0.3319
7.2200 4.7833 -0.3468
7.2400 4.7966 -0.3434
7.2600 4.8099 -0.3321
7.2800 4.8232 -0.3500
7.3000 4.8365 -0.3444
7.3200 4.8498 -0.3290
7.3400 4.8631 -0.3521
7.3600 4.8764 -0.3410
7.3800 4.8898 -0.3314
7.4000 4.9031 -0.3550
7.4200 4.9165 -0.3399
7.4400 4.9298 -0.3380
7.4600 4.9432 -0.3586
7.4800 4.9565 -0.3397
7.5000 4.9698 -0.3389
7.5200 4.9832 -0.3554
7.5400 4.9966 -0.3383
7.5600 5.0099 -0.3449
7.5800 5.0232 -0.3586
7.6000 5.0365 -0.3425
7.6200 5.0499 -0.3412
7.6400 5.0632 -0.3604
7.6600 5.0765 -0.3443
7.6800 5.0898 -0.3407
7.7000 5.1031 -0.3587
7.7200 5.1165 -0.3452
7.7400 5.1298 -0.3450
7.7600 5.1431 -0.3576
7.7800 5.1564 -0.3438
7.8000 5.1698 -0.3472
7.8200 5.1831 -0.3558
7.8400 5.1965 -0.3480
7.8600 5.2098 -0.3462
7.8800 5.2232 -0.3581
7.9000 5.2365 -0.3526
7.9200 5.2499 -0.3433
7.9400 5.2632 -0.3586
7.9600 5.2765 -0.3537
7.9800 5.2899 -0.3459
8.0000 5.3032 -0.3587
8.0200 5.3165 -0.3509
8.0400 5.3298 -0.3449
8.0600 5.3431 -0.3589
8.0800 5.3565 -0.3556
8.1000 5.3698 -0.3412
8.1200 5.3831 -0.3577
8.1400 5.3964 -0.3551
8.1600 5.4098 -0.3412
8.1800 5.4231 -0.3620
8.2000 5.4365 -0.3559
8.2200 5.4498 -0.3421
8.2400 5.4631 -0.3616
8.2600 5.4765 -0.3561
8.2800 5.4899 -0.3447
8.3000 5.5032 -0.3625
8.3200 5.5165 -0.3533
8.3400 5.5298 -0.3455
8.3600 5.5432 -0.3645
8.3800 5.5565 -0.3525
8.4000 5.5698 -0.3429
8.4200 5.5831 -0.3675
8.4400 5.5965 -0.3533
8.4600 5.6098 -0.3450
8.4800 5.6231 -0.3706
8.5000 5.6364 -0.3551
8.5200 5.6498 -0.3487
8.5400 5.6631 -0.3667
8.5600 5.6765 -0.3488
8.5800 5.6898 -0.3530
8.6000 5.7032 -0.3697
8.6200 5.7165 -0.3522
8.6400 5.7299 -0.3552
8.6600 5.7432 -0.3722
8.6800 5.7565 -0.3508
8.7000 5.7699 -0.3574
8.7200 5.7832 -0.3695
8.7400 5.7966 -0.3550
8.7600 5.8099 -0.3546
8.7800 5.8232 -0.3666
8.8000 5.8365 -0.3602
8.8200 5.8498 -0.3538
8.8400 5.8631 -0.3652
8.8600 5.8764 -0.3607
8.8800 5.8898 -0.3518
8.9000 5.9031 -0.3720
8.9200 5.9165 -0.3648
8.9400 5.9298 -0.3572
8.9600 5.9432 -0.3702
8.9800 5.9566 -0.3652
9.0000 5.9699 -0.3599
9.0200 5.9832 -0.3751
9.0400 5.9965 -0.3621
9.0600 6.0099 -0.3578
9.0800 6.0232 -0.3754
9.1000 6.0365 -0.3689
9.1200 6.0498 -0.3593
9.1400 6.0631 -0.3773
9.1600 6.0765 -0.3654
9.1800 6.0898 -0.3633
9.2000 6.1031 -0.3786
9.2200 6.1164 -0.3703
9.2400 6.1298 -0.3654
9.2600 6.1431 -0.3771
9.2800 6.1565 -0.3682
9.3000 6.1698 -0.3633
9.3200 6.1831 -0.3775
9.3400 6.1965 -0.3647
9.3600 6.2099 -0.3720
9.3800 6.2232 -0.3739
9.4000 6.2365 -0.3652
9.4200 6.2499 -0.3707
9.4400 6.2632 -0.3788
9.4600 6.2765 -0.3706
9.4800 6.2898 -0.3663
9.5000 6.3031 -0.3771
9.5200 6.3164 -0.3673
9.5400 6.3298 -0.3716
9.5600 6.3431 -0.3821
9.5800 6.3564 -0.3656
9.6000 6.3698 -0.3732
9.6200 6.3832 -0.3799
9.6400 6.3965 -0.3722
9.6600 6.4099 -0.3726
9.6800 6.4232 -0.3803
9.7000 6.4365 -0.3653
9.7200 6.4499 -0.3771
9.7400 6.4632 -0.3873
9.7600 6.4765 -0.3670
9.7800 6.4898 -0.3799
9.8000 6.5032 -0.3846
9.8200 6.5165 -0.3688
9.8400 6.5299 -0.3774
9.8600 6.5432 -0.3854
9.8800 6.5565 -0.3718
9.9000 6.5699 -0.3818
9.9200 6.5832 -0.3831
9.9400 6.5965 -0.3710
9.9600 6.6098 -0.3855
9.9800 6.6231 -0.3840
10.0000 6.6365 -0.3730
10.0200 6.6498 -0.3852
10.0400 6.6631 -0.3767
10.0600 6.6765 -0.3794
10.0800 6.6899 -0.3865
10.1000 6.7032 -0.3769
10.1200 6.7165 -0.3744
10.1400 6.7299 -0.3853
10.1600 6.7432 -0.3753
10.1800 6.7565 -0.3829
10.2000 6.7699 -0.3843
10.2200 6.7832 -0.3716
10.2400 6.7965 -0.3816
10.2600 6.8099 -0.3843
10.2800 6.8232 -0.3758
10.3000 6.8365 -0.3877
10.3200 6.8498 -0.3735
10.3400 6.8631 -0.3746
10.3600 6.8765 -0.3891
10.3800 6.8898 -0.3746
10.4000 6.9031 -0.3809
10.4200 6.9165 -0.3824
10.4400 6.9299 -0.3754
10.4600 6.9432 -0.3854
10.4800 6.9565 -0.3811
10.5000 6.9699 -0.3750
10.5200 6.9832 -0.3867
10.5400 6.9965 -0.3836
10.5600 7.0098 -0.3788
10.5800 7.0231 -0.3877
10.6000 7.0365 -0.3817
10.6200 7.0498 -0.3807
10.6400 7.0631 -0.3881
10.6600 7.0764 -0.3817
10.6800 7.0898 -0.3802
10.7000 7.1032 -0.3876
10.7200 7.1165 -0.3844
10.7400 7.1298 -0.3852
10.7600 7.1431 -0.3852
10.7800 7.1565 -0.3808
10.8000 7.1698 -0.3894
10.8200 7.1832 -0.3881
10.8400 7.1965 -0.3854
10.8600 7.2099 -0.3883
10.8800 7.2232 -0.3851
10.9000 7.2366 -0.3849
10.9200 7.2499 -0.3928
10.9400 7.2632 -0.3875
10.9600 7.2765 -0.3837
10.9800 7.2898 -0.3901
11.0000 7.3031 -0.3915
11.0200 7.3164 -0.3870
11.0400 7.3297 -0.3918
11.0600 7.3431 -0.3845
11.0800 7.3565 -0.3931
11.1000 7.3698 -0.3936
11.1200 7.3832 -0.3868
11.1400 7.3965 -0.3944
11.1600 7.4099 -0.3958
11.1800 7.4232 -0.3898
11.2000 7.4365 -0.3938
11.2200 7.4499 -0.3946
11.2400 7.4632 -0.3897
11.2600 7.4766 -0.3966
11.2800 7.4899 -0.3946
11.3000 7.5032 -0.3889
11.3200 7.5165 -0.3957
11.3400 7.5298 -0.3927
11.3600 7.5432 -0.3982
11.3800 7.5565 -0.3962
11.4000 7.5698 -0.3918
11.4200 7.5831 -0.3993
11.4400 7.5965 -0.3965
11.4600 7.6098 -0.3982
11.4800 7.6231 -0.3996
11.5000 7.6365 -0.3978
11.5200 7.6499 -0.3963
11.5400 7.6632 -0.3962
11.5600 7.6765 -0.4000
11.5800 7.6899 -0.3976
11.6000 7.7032 -0.3982
11.6200 7.7166 -0.3968
11.6400 7.7299 -0.4012
11.6600 7.7431 -0.4000
11.6800 7.7565 -0.3944
11.7000 7.7698 -0.4014
11.7200 7.7831 -0.3978
11.7400 7.7964 -0.3953
11.7600 7.8098 -0.4018
11.7800 7.8231 -0.3996
11.8000 7.8365 -0.3955
11.8200 7.8498 -0.4029
11.8400 7.8631 -0.3970
11.8600 7.8765 -0.3988
11.8800 7.8898 -0.4071
11.9000 7.9032 -0.3957
11.9200 7.9165 -0.3977
11.9400 7.9298 -0.4000
11.9600 7.9432 -0.3944
11.9800 7.9566 -0.4000
12.0000 7.9699 -0.3994
12.0200 7.9832 -0.3950
12.0400 7.9965 -0.3974
12.0600 8.0099 -0.3988
12.0800 8.0232 -0.4000
12.1000 8.0365 -0.3967
12.1200 8.0498 -0.3977
12.1400 8.0631 -0.3978
12.1600 8.0764 -0.3918
12.1800 8.0897 -0.3964
12.2000 8.1031 -0.4021
12.2200 8.1165 -0.3961
12.2400 8.1299 -0.4011
12.2600 8.1432 -0.4052
12.2800 8.1566 -0.3948
12.3000 8.1699 -0.3960
12.3200 8.1832 -0.4036
12.3400 8.1966 -0.3963
12.3600 8.2099 -0.4001
12.3800 8.2232 -0.4023
12.4000 8.2365 -0.3918
12.4200 8.2498 -0.3993
12.4400 8.2631 -0.4037
12.4600 8.2764 -0.3924
12.4800 8.2897 -0.4016
12.5000 8.3031 -0.4034
12.5200 8.3165 -0.3921
12.5400 8.3298 -0.3962
12.5600 8.3431 -0.4017
12.5800 8.3565 -0.3906
12.6000 8.3699 -0.4071
12.6200 8.3832 -0.3988
12.6400 8.3965 -0.3899
12.6600 8.4099 -0.4105
12.6800 8.4232 -0.3981
12.7000 8.4366 -0.3923
12.7200 8.4499 -0.4110
12.7400 8.4632 -0.3943
12.7600 8.4765 -0.3960
12.7800 8.4898 -0.4085
12.8000 8.5031 -0.3980
12.8200 8.5164 -0.4019
12.8400 8.5297 -0.4124
12.8600 8.5431 -0.3949
12.8800 8.5565 -0.3979
12.9000 8.5698 -0.4178
12.9200 8.5832 -0.3912
12.9400 8.5965 -0.4043
12.9600 8.6099 -0.4191
12.9800 8.6232 -0.3955
13.0000 8.6365 -0.4072
13.0200 8.6499 -0.4191
13.0400 8.6632 -0.3976
13.0600 8.6765 -0.4092
13.0800 8.6899 -0.4165
13.1000 8.7032 -0.4010
13.1200 8.7165 -0.4127
13.1400 8.7299 -0.4165
13.1600 8.7432 -0.4040
13.1800 8.7564 -0.4128
13.2000 8.7697 -0.4106
13.2200 8.7831 -0.4072
13.2400 8.7965 -0.4171
13.2600 8.8098 -0.4126
13.2800 8.8232 -0.4075
13.3000 8.8365 -0.4131
13.3200 8.8499 -0.4103
13.3400 8.8632 -0.4165
13.3600 8.8765 -0.4104
13.3800 8.8899 -0.4108
13.4000 8.9032 -0.4182
13.4200 8.9165 -0.4124
13.4400 8.9299 -0.4145
13.4600 8.9431 -0.4201
13.4800 8.9564 -0.4067
13.5000 8.9698 -0.4162
13.5200 8.9831 -0.4184
13.5400 8.9965 -0.4056
13.5600 9.0098 -0.4202
13.5800 9.0231 -0.4203
13.6000 9.0365 -0.4112
13.6200 9.0498 -0.4213
13.6400 9.0631 -0.4183
13.6600 9.0764 -0.4132
13.6800 9.0898 -0.4224
13.7000 9.1032 -0.4162
13.7200 9.1165 -0.4126
13.7400 9.1299 -0.4206
13.7600 9.1432 -0.4205
13.7800 9.1566 -0.4148
13.8000 9.1699 -0.4214
13.8200 9.1832 -0.4176
13.8400 9.1965 -0.4127
13.8600 9.2098 -0.4203
13.8800 9.2232 -0.4190
13.9000 9.2365 -0.4127
13.9200 9.2498 -0.4192
13.9400 9.2631 -0.4183
13.9600 9.2765 -0.4168
13.9800 9.2898 -0.4200
14.0000 9.3031 -0.4194
14.0200 9.3165 -0.4119
14.0400 9.3298 -0.4189
14.0600 9.3432 -0.4218
14.0800 9.3565 -0.4202
14.1000 9.3698 -0.4204
14.1200 9.3832 -0.4226
14.1400 9.3965 -0.4163
14.1600 9.4099 -0.4220
14.1800 9.4232 -0.4203
14.2000 9.4365 -0.4162
14.2200 9.4498 -0.4248
14.2400 9.4632 -0.4206
14.2600 9.4765 -0.4142
14.2800 9.4897 -0.4206
14.3000 9.5031 -0.4207
14.3200 9.5164 -0.4210
14.3400 9.5298 -0.4220
14.3600 9.5431 -0.4226
14.3800 9.5565 -0.4182
14.4000 9.5699 -0.4221
14.4200 9.5832 -0.4275
14.4400 9.5966 -0.4173
14.4600 9.6099 -0.4211
14.4800 9.6232 -0.4265
14.5000 9.6366 -0.4206
14.5200 9.6499 -0.4235
14.5400 9.6631 -0.4266
14.5600 9.6764 -0.4138
14.5800 9.6897 -0.4259
14.6000 9.7031 -0.4328
14.6200 9.7164 -0.4175
14.6400 9.7298 -0.4229
14.6600 9.7431 -0.4289
14.6800 9.7565 -0.4187
14.7000 9.7698 -0.4260
14.7200 9.7832 -0.4255
14.7400 9.7965 -0.4218
14.7600 9.8099 -0.4280
14.7800 9.8232 -0.4242
14.8000 9.8366 -0.4223
14.8200 9.8499 -0.4272
14.8400 9.8632 -0.4225
14.8600 9.8765 -0.4214
14.8800 9.8899 -0.4298
14.9000 9.9031 -0.4257
14.9200 9.9165 -0.4218
14.9400 9.9298 -0.4282
14.9600 9.9432 -0.4284
14.9800 9.9565 -0.4266
15.0000 9.9698 -0.4257
15.0200 9.9831 -0.4236
15.0400 9.9965 -0.4196
15.0600 10.0098 -0.4305
15.0800 10.0231 -0.4290
15.1000 10.0365 -0.4273
15.1200 10.0499 -0.4269
15.1400 10.0632 -0.4275
15.1600 10.0765 -0.4299
15.1800 10.0899 -0.4227
15.2000 10.1032 -0.4290
15.2200 10.1165 -0.4272
15.2400 10.1299 -0.4278
15.2600 10.1432 -0.4311
15.2800 10.1565 -0.4264
15.3000 10.1698 -0.4282
15.3200 10.1832 -0.4319
15.3400 10.1965 -0.4278
15.3600 10.2098 -0.4292
15.3800 10.2231 -0.4282
15.4000 10.2364 -0.4296
15.4200 10.2498 -0.4319
15.4400 10.2631 -0.4322
15.4600 10.2765 -0.4269
15.4800 10.2898 -0.4291
15.5000 10.3032 -0.4293
15.5200 10.3166 -0.4302
15.5400 10.3299 -0.4327
15.5600 10.3432 -0.4297
15.5800 10.3566 -0.4313
15.6000 10.3699 -0.4301
15.6200 10.3832 -0.4286
15.6400 10.3965 -0.4326
15.6600 10.4098 -0.4329
15.6800 10.4232 -0.4287
15.7000 10.4365 -0.4262
15.7200 10.4498 -0.4327
15.7400 10.4631 -0.4301
15.7600 10.4764 -0.4244
15.7800 10.4898 -0.4347
15.8000 10.5031 -0.4295
15.8200 10.5164 -0.4254
15.8400 10.5298 -0.4335
15.8600 10.5432 -0.4265
15.8800 10.5565 -0.4328
15.9000 10.5698 -0.4291
15.9200 10.5832 -0.4262
15.9400 10.5965 -0.4304
15.9600 10.6099 -0.4318
15.9800 10.6232 -0.4242
16.0000 10.6365 -0.4328
16.0200 10.6498 -0.4322
16.0400 10.6631 -0.4243
16.0600 10.6765 -0.4356
16.0800 10.6898 -0.4264
16.1000 10.7031 -0.4307
16.1200 10.7164 -0.4362
16.1400 10.7298 -0.4276
16.1600 10.7431 -0.4287
16.1800 10.7565 -0.4333
16.2000 10.7698 -0.4277
16.2200 10.7832 -0.4308
16.2400 10.7966 -0.4333
16.2600 10.8099 -0.4286
16.2800 10.8232 -0.4302
16.3000 10.8365 -0.4314
16.3200 10.8499 -0.4292
16.3400 10.8632 -0.4364
16.3600 10.8765 -0.4331
16.3800 10.8898 -0.4280
16.4000 10.9032 -0.4338
16.4200 10.9165 -0.4329
16.4400 10.9298 -0.4277
16.4600 10.9431 -0.4334
16.4800 10.9564 -0.4369
16.5000 10.9698 -0.4275
16.5200 10.9831 -0.4348
16.5400 10.9965 -0.4371
16.5600 11.0098 -0.4273
16.5800 11.0232 -0.4359
16.6000 11.0366 -0.4387
16.6200 11.0499 -0.4286
16.6400 11.0632 -0.4312
16.6600 11.0765 -0.4341
16.6800 11.0899 -0.4356
16.7000 11.1032 -0.4301
16.7200 11.1164 -0.4356
16.7400 11.1298 -0.4350
16.7600 11.1431 -0.4299
16.7800 11.1565 -0.4384
16.8000 11.1698 -0.4338
16.8200 11.1831 -0.4310
16.8400 11.1965 -0.4406
16.8600 11.2099 -0.4364
16.8800 11.2232 -0.4333
16.9000 11.2365 -0.4356
16.9200 11.2498 -0.4382
16.9400 11.2632 -0.4362
