Raw Data
Time Displacement Force
(s) (mm) (N)
0.0000 0.0000 0.2184
0.0200 0.0000 0.2388
0.0400 0.0008 0.2881
0.0600 0.0039 0.3540
0.0800 0.0093 0.3803
0.1000 0.0150 0.4087
0.1200 0.0208 0.4586
0.1400 0.0275 0.4944
0.1600 0.0348 0.5328
0.1800 0.0423 0.5652
0.2000 0.0495 0.6099
0.2200 0.0564 0.6461
0.2400 0.0631 0.6831
0.2600 0.0698 0.7252
0.2800 0.0764 0.7608
0.3000 0.0831 0.7736
0.3200 0.0899 0.7803
0.3400 0.0966 0.7909
0.3600 0.1033 0.7803
0.3800 0.1099 0.7805
0.4000 0.1166 0.7884
0.4200 0.1233 0.7746
0.4400 0.1300 0.7839
0.4600 0.1366 0.7870
0.4800 0.1433 0.7799
0.5000 0.1500 0.7861
0.5200 0.1567 0.7849
0.5400 0.1633 0.7768
0.5600 0.1699 0.7919
0.5800 0.1765 0.7907
0.6000 0.1832 0.7761
0.6200 0.1899 0.7842
0.6400 0.1966 0.7856
0.6600 0.2033 0.7839
0.6800 0.2100 0.7880
0.7000 0.2167 0.7818
0.7200 0.2233 0.7876
0.7400 0.2299 0.7847
0.7600 0.2365 0.7837
0.7800 0.2432 0.7916
0.8000 0.2499 0.7797
0.8200 0.2566 0.7851
0.8400 0.2633 0.7927
0.8600 0.2699 0.7791
0.8800 0.2766 0.7894
0.9000 0.2833 0.7935
0.9200 0.2899 0.7783
0.9400 0.2965 0.7939
0.9600 0.3031 0.7923
0.9800 0.3099 0.7853
1.0000 0.3166 0.7916
1.0200 0.3232 0.7896
1.0400 0.3299 0.7839
1.0600 0.3366 0.7937
1.0800 0.3432 0.7883
1.1000 0.3499 0.7831
1.1200 0.3565 0.7888
1.1400 0.3632 0.7916
1.1600 0.3699 0.7850
1.1800 0.3766 0.7891
1.2000 0.3833 0.7897
1.2200 0.3900 0.7841
1.2400 0.3967 0.7871
1.2600 0.4033 0.7854
1.2800 0.4099 0.7866
1.3000 0.4166 0.7894
1.3200 0.4233 0.7843
1.3400 0.4299 0.7832
1.3600 0.4366 0.7839
1.3800 0.4433 0.7919
1.4000 0.4500 0.7871
1.4200 0.4567 0.7808
1.4400 0.4633 0.7887
1.4600 0.4699 0.7872
1.4800 0.4765 0.7842
1.5000 0.4831 0.7855
1.5200 0.4898 0.7888
1.5400 0.4965 0.7859
1.5600 0.5032 0.7841
1.5800 0.5099 0.7809
1.6000 0.5165 0.7832
1.6200 0.5232 0.7858
1.6400 0.5298 0.7793
1.6600 0.5365 0.7831
1.6800 0.5432 0.7922
1.7000 0.5499 0.7795
1.7200 0.5566 0.7808
1.7400 0.5633 0.7882
1.7600 0.5700 0.7803
1.7800 0.5767 0.7827
1.8000 0.5833 0.7896
1.8200 0.5899 0.7744
1.8400 0.5966 0.7816
1.8600 0.6032 0.7800
1.8800 0.6099 0.7731
1.9000 0.6166 0.7855
1.9200 0.6233 0.7787
1.9400 0.6300 0.7692
1.9600 0.6367 0.7818
1.9800 0.6433 0.7735
2.0000 0.6499 0.7735
2.0200 0.6565 0.7833
2.0400 0.6632 0.7712
2.0600 0.6699 0.7715
2.0800 0.6766 0.7807
2.1000 0.6833 0.7736
2.1200 0.6900 0.7681
2.1400 0.6966 0.7771
2.1600 0.7033 0.7708
2.1800 0.7099 0.7711
2.2000 0.7165 0.7736
2.2200 0.7232 0.7723
2.2400 0.7299 0.7712
2.2600 0.7366 0.7669
2.2800 0.7433 0.7733
2.3000 0.7499 0.7714
2.3200 0.7566 0.7661
2.3400 0.7633 0.7724
2.3600 0.7699 0.7659
2.3800 0.7765 0.7661
2.4000 0.7832 0.7703
2.4200 0.7899 0.7730
2.4400 0.7965 0.7581
2.4600 0.8032 0.7722
2.4800 0.8099 0.7673
2.5000 0.8167 0.7614
2.5200 0.8233 0.7729
2.5400 0.8299 0.7593
2.5600 0.8365 0.7579
2.5800 0.8432 0.7816
2.6000 0.8499 0.7580
2.6200 0.8566 0.7559
2.6400 0.8633 0.7751
2.6600 0.8700 0.7575
2.6800 0.8767 0.7559
2.7000 0.8833 0.7759
2.7200 0.8899 0.7614
2.7400 0.8965 0.7596
2.7600 0.9032 0.7722
2.7800 0.9099 0.7573
2.8000 0.9166 0.7623
2.8200 0.9233 0.7675
2.8400 0.9300 0.7543
2.8600 0.9367 0.7628
2.8800 0.9433 0.7611
2.9000 0.9499 0.7584
2.9200 0.9565 0.7669
2.9400 0.9632 0.7587
2.9600 0.9699 0.7594
2.9800 0.9766 0.7596
3.0000 0.9833 0.7569
3.0200 0.9900 0.7581
3.0400 0.9967 0.7576
3.0600 1.0033 0.7536
3.0800 1.0099 0.7585
3.1000 1.0165 0.7563
3.1200 1.0231 0.7584
3.1400 1.0299 0.7564
3.1600 1.0366 0.7485
3.1800 1.0433 0.7540
3.2000 1.0499 0.7527
3.2200 1.0566 0.7491
3.2400 1.0633 0.7561
3.2600 1.0699 0.7528
3.2800 1.0765 0.7456
3.3000 1.0832 0.7582
3.3200 1.0899 0.7549
3.3400 1.0966 0.7426
3.3600 1.1033 0.7560
3.3800 1.1100 0.7496
3.4000 1.1167 0.7451
3.4200 1.1234 0.7545
3.4400 1.1300 0.7414
3.4600 1.1366 0.7472
3.4800 1.1432 0.7566
3.5000 1.1499 0.7385
3.5200 1.1566 0.7407
3.5400 1.1633 0.7548
3.5600 1.1700 0.7369
3.5800 1.1767 0.7415
3.6000 1.1833 0.7505
3.6200 1.1899 0.7435
3.6400 1.1965 0.7441
3.6600 1.2032 0.7498
3.6800 1.2099 0.7353
3.7000 1.2166 0.7424
3.7200 1.2233 0.7502
3.7400 1.2299 0.7379
3.7600 1.2366 0.7439
3.7800 1.2433 0.7517
3.8000 1.2499 0.7324
3.8200 1.2565 0.7423
3.8400 1.2632 0.7482
3.8600 1.2699 0.7375
3.8800 1.2766 0.7451
3.9000 1.2833 0.7430
3.9200 1.2899 0.7376
3.9400 1.2966 0.7467
3.9600 1.3033 0.7404
3.9800 1.3099 0.7401
4.0000 1.3165 0.7445
4.0200 1.3232 0.7427
4.0400 1.3299 0.7441
4.0600 1.3366 0.7436
4.0800 1.3433 0.7397
4.1000 1.3500 0.7413
4.1200 1.3566 0.7409
4.1400 1.3633 0.7398
4.1600 1.3699 0.7467
4.1800 1.3766 0.7394
4.2000 1.3832 0.7398
4.2200 1.3899 0.7482
4.2400 1.3966 0.7363
4.2600 1.4033 0.7414
4.2800 1.4100 0.7462
4.3000 1.4167 0.7323
4.3200 1.4233 0.7434
4.3400 1.4299 0.7471
4.3600 1.4365 0.7338
4.3800 1.4432 0.7422
4.4000 1.4499 0.7405
4.4200 1.4566 0.7294
4.4400 1.4633 0.7438
4.4600 1.4699 0.7366
4.4800 1.4766 0.7367
4.5000 1.4833 0.7430
4.5200 1.4899 0.7328
4.5400 1.4965 0.7391
4.5600 1.5032 0.7469
4.5800 1.5098 0.7314
4.6000 1.5166 0.7373
4.6200 1.5233 0.7395
4.6400 1.5300 0.7301
4.6600 1.5366 0.7443
4.6800 1.5433 0.7368
4.7000 1.5499 0.7281
4.7200 1.5565 0.7402
4.7400 1.5632 0.7347
4.7600 1.5699 0.7319
4.7800 1.5766 0.7388
4.8000 1.5833 0.7357
4.8200 1.5900 0.7329
4.8400 1.5967 0.7337
4.8600 1.6033 0.7291
4.8800 1.6100 0.7343
4.9000 1.6165 0.7316
4.9200 1.6232 0.7300
4.9400 1.6298 0.7369
4.9600 1.6366 0.7260
4.9800 1.6433 0.7277
5.0000 1.6500 0.7300
5.0200 1.6567 0.7267
5.0400 1.6633 0.7217
5.0600 1.6700 0.7233
5.0800 1.6765 0.7296
5.1000 1.6831 0.7255
5.1200 1.6898 0.7240
5.1400 1.6965 0.7239
5.1600 1.7033 0.7236
5.1800 1.7100 0.7232
5.2000 1.7167 0.7202
5.2200 1.7233 0.7260
5.2400 1.7300 0.7202
5.2600 1.7365 0.7190
5.2800 1.7431 0.7230
5.3000 1.7498 0.7226
5.3200 1.7566 0.7197
5.3400 1.7633 0.7165
5.3600 1.7699 0.7198
5.3800 1.7766 0.7173
5.4000 1.7833 0.7122
5.4200 1.7899 0.7203
5.4400 1.7965 0.7191
5.4600 1.8032 0.7151
5.4800 1.8099 0.7193
5.5000 1.8166 0.7169
5.5200 1.8233 0.7062
5.5400 1.8300 0.7193
5.5600 1.8367 0.7202
5.5800 1.8434 0.7081
5.6000 1.8500 0.7188
5.6200 1.8566 0.7156
5.6400 1.8632 0.7089
5.6600 1.8699 0.7204
5.6800 1.8766 0.7119
5.7000 1.8833 0.7062
5.7200 1.8900 0.7208
5.7400 1.8966 0.7101
5.7600 1.9033 0.7055
5.7800 1.9099 0.7204
5.8000 1.9165 0.7100
5.8200 1.9232 0.7047
5.8400 1.9298 0.7200
5.8600 1.9366 0.7053
5.8800 1.9433 0.7033
5.9000 1.9499 0.7184
5.9200 1.9566 0.7060
5.9400 1.9633 0.7045
5.9600 1.9699 0.7191
5.9800 1.9766 0.7001
6.0000 1.9832 0.7081
6.0200 1.9898 0.7150
6.0400 1.9965 0.7006
6.0600 2.0032 0.7065
6.0800 2.0099 0.7085
6.1000 2.0166 0.6991
6.1200 2.0233 0.7104
6.1400 2.0300 0.7052
6.1600 2.0366 0.6983
6.1800 2.0432 0.7054
6.2000 2.0499 0.7041
6.2200 2.0566 0.7039
6.2400 2.0633 0.7062
6.2600 2.0700 0.7015
6.2800 2.0766 0.7033
6.3000 2.0833 0.7005
6.3200 2.0899 0.6965
6.3400 2.0965 0.7054
6.3600 2.1032 0.7048
6.3800 2.1099 0.6981
6.4000 2.1166 0.7017
6.4200 2.1233 0.6953
6.4400 2.1300 0.6959
6.4600 2.1366 0.7055
6.4800 2.1433 0.6973
6.5000 2.1500 0.6994
6.5200 2.1566 0.7020
6.5400 2.1632 0.6935
6.5600 2.1699 0.6952
6.5800 2.1766 0.7004
6.6000 2.1833 0.6954
6.6200 2.1899 0.6959
6.6400 2.1967 0.6954
6.6600 2.2034 0.6922
6.6800 2.2100 0.6932
6.7000 2.2166 0.6980
6.7200 2.2232 0.6913
6.7400 2.2298 0.6965
6.7600 2.2365 0.6924
6.7800 2.2432 0.6888
6.8000 2.2499 0.6933
6.8200 2.2566 0.6966
6.8400 2.2633 0.6834
6.8600 2.2699 0.6925
6.8800 2.2766 0.6953
6.9000 2.2832 0.6838
6.9200 2.2899 0.6945
6.9400 2.2966 0.6948
6.9600 2.3033 0.6851
6.9800 2.3099 0.6896
7.0000 2.3166 0.6916
7.0200 2.3233 0.6877
7.0400 2.3300 0.6863
7.0600 2.3366 0.6857
7.0800 2.3432 0.6891
7.1000 2.3499 0.6904
7.1200 2.3565 0.6885
7.1400 2.3633 0.6818
7.1600 2.3699 0.6882
7.1800 2.3767 0.6841
7.2000 2.3834 0.6847
7.2200 2.3900 0.6841
7.2400 2.3966 0.6835
7.2600 2.4032 0.6799
7.2800 2.4098 0.6920
7.3000 2.4166 0.6841
7.3200 2.4233 0.6795
7.3400 2.4300 0.6861
7.3600 2.4366 0.6850
7.3800 2.4433 0.6796
7.4000 2.4500 0.6820
7.4200 2.4566 0.6842
7.4400 2.4632 0.6819
7.4600 2.4698 0.6811
7.4800 2.4765 0.6849
7.5000 2.4832 0.6795
7.5200 2.4899 0.6811
7.5400 2.4966 0.6841
7.5600 2.5033 0.6770
7.5800 2.5099 0.6742
7.6000 2.5166 0.6890
7.6200 2.5232 0.6758
7.6400 2.5299 0.6753
7.6600 2.5366 0.6851
7.6800 2.5433 0.6751
7.7000 2.5500 0.6766
7.7200 2.5567 0.6817
7.7400 2.5633 0.6694
7.7600 2.5700 0.6743
7.7800 2.5766 0.6818
7.8000 2.5832 0.6692
7.8200 2.5899 0.6783
7.8400 2.5966 0.6828
7.8600 2.6033 0.6630
7.8800 2.6100 0.6740
7.9000 2.6166 0.6808
7.9200 2.6233 0.6683
7.9400 2.6300 0.6709
7.9600 2.6366 0.6759
7.9800 2.6432 0.6736
8.0000 2.6499 0.6707
8.0200 2.6566 0.6759
8.0400 2.6633 0.6652
8.0600 2.6699 0.6748
8.0800 2.6766 0.6731
8.1000 2.6833 0.6684
8.1200 2.6900 0.6676
8.1400 2.6966 0.6718
8.1600 2.7032 0.6680
8.1800 2.7098 0.6677
8.2000 2.7165 0.6725
8.2200 2.7232 0.6624
8.2400 2.7299 0.6635
8.2600 2.7366 0.6729
8.2800 2.7433 0.6597
8.3000 2.7500 0.6617
8.3200 2.7566 0.6703
8.3400 2.7632 0.6596
8.3600 2.7699 0.6559
8.3800 2.7766 0.6697
8.4000 2.7832 0.6619
8.4200 2.7899 0.6623
8.4400 2.7966 0.6660
8.4600 2.8033 0.6589
8.4800 2.8100 0.6601
8.5000 2.8166 0.6637
8.5200 2.8232 0.6584
8.5400 2.8299 0.6625
8.5600 2.8366 0.6632
8.5800 2.8433 0.6542
8.6000 2.8500 0.6612
8.6200 2.8567 0.6608
8.6400 2.8633 0.6560
8.6600 2.8700 0.6575
8.6800 2.8766 0.6609
8.7000 2.8832 0.6570
8.7200 2.8899 0.6598
8.7400 2.8965 0.6548
8.7600 2.9032 0.6560
8.7800 2.9099 0.6578
8.8000 2.9166 0.6584
8.8200 2.9233 0.6566
8.8400 2.9300 0.6552
8.8600 2.9366 0.6524
8.8800 2.9432 0.6606
8.9000 2.9498 0.6562
8.9200 2.9565 0.6514
8.9400 2.9632 0.6585
8.9600 2.9699 0.6579
8.9800 2.9766 0.6512
9.0000 2.9833 0.6574
9.0200 2.9899 0.6505
9.0400 2.9966 0.6510
9.0600 3.0032 0.6576
9.0800 3.0099 0.6471
9.1000 3.0166 0.6509
9.1200 3.0233 0.6600
9.1400 3.0300 0.6493
9.1600 3.0366 0.6472
9.1800 3.0433 0.6569
9.2000 3.0500 0.6473
9.2200 3.0566 0.6436
9.2400 3.0632 0.6535
9.2600 3.0699 0.6501
9.2800 3.0765 0.6483
9.3000 3.0833 0.6482
9.3200 3.0900 0.6440
9.3400 3.0966 0.6520
9.3600 3.1033 0.6487
9.3800 3.1100 0.6422
9.4000 3.1166 0.6500
9.4200 3.1232 0.6539
9.4400 3.1298 0.6429
9.4600 3.1365 0.6494
9.4800 3.1433 0.6424
9.5000 3.1500 0.6445
9.5200 3.1566 0.6483
9.5400 3.1633 0.6446
9.5600 3.1700 0.6418
9.5800 3.1766 0.6468
9.6000 3.1832 0.6475
9.6200 3.1898 0.6419
9.6400 3.1965 0.6433
9.6600 3.2032 0.6463
9.6800 3.2099 0.6417
9.7000 3.2166 0.6402
9.7200 3.2232 0.6470
9.7400 3.2299 0.6468
9.7600 3.2366 0.6380
9.7800 3.2432 0.6451
9.8000 3.2498 0.6448
9.8200 3.2565 0.6345
9.8400 3.2633 0.6470
9.8600 3.2700 0.6432
9.8800 3.2766 0.6347
9.9000 3.2833 0.6437
9.9200 3.2900 0.6413
9.9400 3.2966 0.6323
9.9600 3.3032 0.6444
9.9800 3.3099 0.6456
10.0000 3.3166 0.6280
10.0200 3.3233 0.6426
10.0400 3.3300 0.6439
10.0600 3.3367 0.6246
10.0800 3.3433 0.6460
10.1000 3.3500 0.6409
10.1200 3.3566 0.6292
10.1400 3.3632 0.6432
10.1600 3.3698 0.6408
10.1800 3.3765 0.6251
10.2000 3.3832 0.6416
10.2200 3.3899 0.6403
10.2400 3.3966 0.6256
10.2600 3.4033 0.6419
10.2800 3.4100 0.6398
10.3000 3.4166 0.6245
10.3200 3.4232 0.6433
10.3400 3.4298 0.6355
10.3600 3.4365 0.6233
10.3800 3.4432 0.6416
10.4000 3.4499 0.6337
10.4200 3.4566 0.6226
10.4400 3.4633 0.6445
10.4600 3.4699 0.6323
10.4800 3.4766 0.6213
10.5000 3.4832 0.6396
10.5200 3.4899 0.6312
10.5400 3.4966 0.6247
10.5600 3.5033 0.6356
10.5800 3.5099 0.6314
10.6000 3.5166 0.6229
10.6200 3.5233 0.6406
10.6400 3.5300 0.6311
10.6600 3.5367 0.6207
10.6800 3.5433 0.6349
10.7000 3.5499 0.6334
10.7200 3.5565 0.6202
10.7400 3.5632 0.6316
10.7600 3.5699 0.6289
10.7800 3.5766 0.6212
10.8000 3.5833 0.6302
10.8200 3.5900 0.6285
10.8400 3.5967 0.6185
10.8600 3.6033 0.6345
10.8800 3.6099 0.6288
10.9000 3.6165 0.6184
10.9200 3.6233 0.6294
10.9400 3.6300 0.6297
10.9600 3.6366 0.6153
10.9800 3.6433 0.6294
11.0000 3.6500 0.6246
11.0200 3.6566 0.6192
11.0400 3.6632 0.6280
11.0600 3.6698 0.6267
11.0800 3.6765 0.6232
11.1000 3.6832 0.6281
11.1200 3.6899 0.6189
11.1400 3.6965 0.6222
11.1600 3.7032 0.6250
11.1800 3.7099 0.6192
11.2000 3.7166 0.6192
11.2200 3.7232 0.6230
11.2400 3.7298 0.6199
11.2600 3.7365 0.6193
11.2800 3.7432 0.6251
11.3000 3.7499 0.6217
11.3200 3.7567 0.6231
11.3400 3.7634 0.6236
11.3600 3.7701 0.6175
11.3800 3.7767 0.6151
11.4000 3.7833 0.6215
11.4200 3.7899 0.6218
11.4400 3.7965 0.6188
11.4600 3.8033 0.6205
11.4800 3.8100 0.6218
11.5000 3.8167 0.6161
11.5200 3.8233 0.6204
11.5400 3.8300 0.6202
11.5600 3.8366 0.6168
11.5800 3.8433 0.6160
11.6000 3.8499 0.6212
11.6200 3.8565 0.6127
11.6400 3.8632 0.6171
11.6600 3.8699 0.6215
11.6800 3.8766 0.6119
11.7000 3.8833 0.6179
11.7200 3.8900 0.6193
11.7400 3.8966 0.6087
11.7600 3.9032 0.6135
11.7800 3.9098 0.6171
11.8000 3.9165 0.6121
11.8200 3.9232 0.6117
11.8400 3.9299 0.6135
11.8600 3.9366 0.6113
11.8800 3.9433 0.6141
11.9000 3.9500 0.6132
11.9200 3.9566 0.6092
11.9400 3.9632 0.6142
11.9600 3.9698 0.6102
11.9800 3.9765 0.6099
12.0000 3.9833 0.6090
12.0200 3.9900 0.6090
12.0400 3.9967 0.6093
12.0600 4.0033 0.6101
12.0800 4.0100 0.6095
12.1000 4.0167 0.6077
12.1200 4.0233 0.6072
12.1400 4.0299 0.6143
12.1600 4.0366 0.6017
12.1800 4.0433 0.6069
12.2000 4.0499 0.6132
12.2200 4.0566 0.6019
12.2400 4.0633 0.6033
12.2600 4.0700 0.6119
12.2800 4.0767 0.5972
12.3000 4.0833 0.6063
12.3200 4.0899 0.6134
12.3400 4.0965 0.5994
12.3600 4.1032 0.6054
12.3800 4.1099 0.6049
12.4000 4.1166 0.5951
12.4200 4.1233 0.6048
12.4400 4.1300 0.6047
12.4600 4.1366 0.5979
12.4800 4.1432 0.5999
12.5000 4.1498 0.6042
12.5200 4.1565 0.6034
12.5400 4.1632 0.6006
12.5600 4.1699 0.5971
12.5800 4.1766 0.5989
12.6000 4.1833 0.5984
12.6200 4.1900 0.5982
12.6400 4.1967 0.5992
12.6600 4.2033 0.5948
12.6800 4.2099 0.5999
12.7000 4.2165 0.5961
12.7200 4.2232 0.5948
12.7400 4.2299 0.6014
12.7600 4.2366 0.6012
12.7800 4.2433 0.5919
12.8000 4.2500 0.5997
12.8200 4.2567 0.5962
12.8400 4.2633 0.5928
12.8600 4.2699 0.5986
12.8800 4.2765 0.5980
12.9000 4.2832 0.5914
12.9200 4.2899 0.5999
12.9400 4.2966 0.5953
12.9600 4.3033 0.5907
12.9800 4.3100 0.5958
13.0000 4.3167 0.5922
13.0200 4.3233 0.5881
13.0400 4.3299 0.5972
13.0600 4.3365 0.5961
13.0800 4.3432 0.5939
13.1000 4.3499 0.5931
13.1200 4.3566 0.5925
13.1400 4.3633 0.5967
13.1600 4.3700 0.5914
13.1800 4.3767 0.5853
13.2000 4.3833 0.5934
13.2200 4.3899 0.5935
13.2400 4.3965 0.5858
13.2600 4.4032 0.5936
13.2800 4.4099 0.5866
13.3000 4.4166 0.5895
13.3200 4.4233 0.5999
13.3400 4.4300 0.5829
13.3600 4.4367 0.5859
13.3800 4.4433 0.5960
13.4000 4.4499 0.5822
13.4200 4.4565 0.5976
13.4400 4.4632 0.5923
13.4600 4.4699 0.5794
13.4800 4.4767 0.5960
13.5000 4.4834 0.5902
13.5200 4.4900 0.5768
13.5400 4.4967 0.5979
13.5600 4.5033 0.5840
13.5800 4.5099 0.5814
13.6000 4.5165 0.5969
13.6200 4.5232 0.5777
13.6400 4.5299 0.5808
13.6600 4.5366 0.5985
13.6800 4.5433 0.5778
13.7000 4.5500 0.5822
13.7200 4.5566 0.5905
13.7400 4.5633 0.5737
13.7600 4.5698 0.5877
13.7800 4.5765 0.5955
13.8000 4.5832 0.5748
13.8200 4.5899 0.5839
13.8400 4.5966 0.5868
13.8600 4.6033 0.5767
13.8800 4.6100 0.5868
13.9000 4.6167 0.5840
13.9200 4.6233 0.5798
13.9400 4.6299 0.5882
13.9600 4.6365 0.5821
13.9800 4.6432 0.5729
14.0000 4.6499 0.5877
14.0200 4.6566 0.5843
14.0400 4.6633 0.5740
14.0600 4.6700 0.5843
14.0800 4.6766 0.5817
14.1000 4.6833 0.5780
14.1200 4.6899 0.5831
14.1400 4.6965 0.5798
14.1600 4.7032 0.5789
14.1800 4.7099 0.5784
14.2000 4.7166 0.5807
14.2200 4.7233 0.5770
14.2400 4.7300 0.5785
14.2600 4.7367 0.5775
14.2800 4.7433 0.5769
14.3000 4.7499 0.5776
14.3200 4.7565 0.5845
14.3400 4.7632 0.5767
14.3600 4.7699 0.5728
14.3800 4.7766 0.5829
14.4000 4.7833 0.5774
14.4200 4.7900 0.5737
14.4400 4.7967 0.5855
14.4600 4.8033 0.5698
14.4800 4.8099 0.5755
14.5000 4.8165 0.5891
14.5200 4.8232 0.5732
14.5400 4.8299 0.5733
14.5600 4.8366 0.5830
14.5800 4.8432 0.5727
14.6000 4.8499 0.5739
14.6200 4.8566 0.5829
14.6400 4.8632 0.5687
14.6600 4.8699 0.5724
14.6800 4.8765 0.5823
14.7000 4.8832 0.5688
14.7200 4.8899 0.5759
14.7400 4.8966 0.5768
14.7600 4.9032 0.5668
14.7800 4.9099 0.5771
14.8000 4.9166 0.5749
14.8200 4.9233 0.5639
14.8400 4.9299 0.5702
14.8600 4.9366 0.5746
14.8800 4.9432 0.5687
14.9000 4.9499 0.5813
14.9200 4.9566 0.5688
14.9400 4.9633 0.5668
14.9600 4.9700 0.5738
14.9800 4.9767 0.5670
15.0000 4.9833 0.5718
15.0200 4.9899 0.5725
15.0400 4.9965 0.5696
15.0600 5.0032 0.5698
15.0800 5.0099 0.5650
15.1000 5.0166 0.5704
15.1200 5.0233 0.5727
15.1400 5.0300 0.5614
15.1600 5.0367 0.5668
15.1800 5.0433 0.5736
15.2000 5.0499 0.5581
15.2200 5.0565 0.5728
15.2400 5.0632 0.5726
15.2600 5.0699 0.5517
15.2800 5.0766 0.5696
15.3000 5.0833 0.5690
15.3200 5.0900 0.5503
15.3400 5.0967 0.5705
15.3600 5.1033 0.5641
15.3800 5.1099 0.5484
15.4000 5.1165 0.5751
15.4200 5.1231 0.5636
15.4400 5.1298 0.5524
15.4600 5.1366 0.5695
15.4800 5.1432 0.5581
15.5000 5.1499 0.5473
15.5200 5.1566 0.5727
15.5400 5.1633 0.5524
15.5600 5.1699 0.5473
15.5800 5.1765 0.5691
15.6000 5.1832 0.5535
15.6200 5.1899 0.5490
15.6400 5.1966 0.5679
15.6600 5.2033 0.5519
15.6800 5.2100 0.5530
15.7000 5.2167 0.5621
15.7200 5.2234 0.5476
15.7400 5.2300 0.5534
15.7600 5.2366 0.5673
15.7800 5.2433 0.5473
15.8000 5.2500 0.5508
15.8200 5.2567 0.5582
15.8400 5.2633 0.5484
15.8600 5.2700 0.5492
15.8800 5.2767 0.5549
15.9000 5.2833 0.5531
15.9200 5.2899 0.5503
15.9400 5.2965 0.5515
15.9600 5.3031 0.5526
15.9800 5.3098 0.5531
16.0000 5.3165 0.5518
16.0200 5.3232 0.5512
16.0400 5.3299 0.5472
16.0600 5.3366 0.5492
16.0800 5.3433 0.5542
16.1000 5.3499 0.5451
16.1200 5.3565 0.5493
16.1400 5.3632 0.5524
16.1600 5.3699 0.5442
16.1800 5.3766 0.5505
16.2000 5.3833 0.5469
16.2200 5.3899 0.5490
16.2400 5.3966 0.5453
16.2600 5.4033 0.5487
16.2800 5.4100 0.5457
16.3000 5.4166 0.5461
16.3200 5.4232 0.5483
16.3400 5.4299 0.5431
16.3600 5.4366 0.5493
16.3800 5.4433 0.5506
16.4000 5.4500 0.5429
16.4200 5.4567 0.5464
16.4400 5.4633 0.5454
16.4600 5.4699 0.5454
16.4800 5.4765 0.5464
16.5000 5.4832 0.5524
16.5200 5.4899 0.5413
16.5400 5.4966 0.5442
16.5600 5.5033 0.5520
16.5800 5.5100 0.5391
16.6000 5.5166 0.5459
16.6200 5.5233 0.5544
16.6400 5.5299 0.5369
16.6600 5.5365 0.5427
16.6800 5.5432 0.5581
16.7000 5.5499 0.5367
16.7200 5.5566 0.5431
16.7400 5.5633 0.5541
16.7600 5.5699 0.5382
16.7800 5.5766 0.5441
16.8000 5.5832 0.5502
16.8200 5.5898 0.5385
16.8400 5.5965 0.5484
16.8600 5.6031 0.5509
16.8800 5.6098 0.5380
16.9000 5.6166 0.5466
16.9200 5.6233 0.5473
16.9400 5.6300 0.5337
16.9600 5.6367 0.5453
16.9800 5.6433 0.5459
17.0000 5.6500 0.5364
17.0200 5.6566 0.5469
17.0400 5.6632 0.5454
17.0600 5.6699 0.5366
17.0800 5.6766 0.5440
17.1000 5.6833 0.5422
17.1200 5.6900 0.5402
17.1400 5.6967 0.5437
17.1600 5.7033 0.5410
17.1800 5.7099 0.5401
17.2000 5.7165 0.5438
17.2200 5.7232 0.5404
17.2400 5.7299 0.5411
17.2600 5.7366 0.5416
17.2800 5.7433 0.5393
17.3000 5.7500 0.5368
17.3200 5.7567 0.5438
17.3400 5.7633 0.5348
17.3600 5.7699 0.5391
17.3800 5.7765 0.5397
17.4000 5.7832 0.5342
17.4200 5.7899 0.5423
17.4400 5.7966 0.5368
17.4600 5.8033 0.5347
17.4800 5.8100 0.5412
17.5000 5.8167 0.5387
17.5200 5.8233 0.5315
17.5400 5.8299 0.5443
17.5600 5.8365 0.5363
17.5800 5.8431 0.5329
17.6000 5.8498 0.5406
17.6200 5.8565 0.5311
17.6400 5.8632 0.5321
17.6600 5.8699 0.5402
17.6800 5.8766 0.5243
17.7000 5.8833 0.5344
17.7200 5.8899 0.5408
17.7400 5.8966 0.5272
17.7600 5.9032 0.5312
