Raw Data
Time Displacement Force
(s) (mm) (N)
0.0000 0.0000 0.1078
0.0200 0.0001 0.1230
0.0400 0.0022 0.1834
0.0600 0.0101 0.1788
0.0800 0.0221 0.1014
0.1000 0.0346 0.0995
0.1200 0.0473 0.1376
0.1400 0.0607 0.1155
0.1600 0.0747 0.1005
0.1800 0.0889 0.1230
0.2000 0.1028 0.0997
0.2200 0.1164 0.1032
0.2400 0.1297 0.1192
0.2600 0.1430 0.1048
0.2800 0.1563 0.1079
0.3000 0.1697 0.1192
0.3200 0.1831 0.1039
0.3400 0.1965 0.1084
0.3600 0.2098 0.1171
0.3800 0.2231 0.1070
0.4000 0.2365 0.1052
0.4200 0.2498 0.1164
0.4400 0.2631 0.1075
0.4600 0.2764 0.1034
0.4800 0.2898 0.1137
0.5000 0.3031 0.1045
0.5200 0.3164 0.0970
0.5400 0.3298 0.1089
0.5600 0.3431 0.1034
0.5800 0.3565 0.0953
0.6000 0.3698 0.1087
0.6200 0.3831 0.0956
0.6400 0.3965 0.0953
0.6600 0.4098 0.1024
0.6800 0.4232 0.0973
0.7000 0.4365 0.0849
0.7200 0.4498 0.0960
0.7400 0.4632 0.0885
0.7600 0.4765 0.0903
0.7800 0.4898 0.0940
0.8000 0.5031 0.0895
0.8200 0.5165 0.0887
0.8400 0.5298 0.0884
0.8600 0.5431 0.0838
0.8800 0.5564 0.0881
0.9000 0.5697 0.0905
0.9200 0.5830 0.0814
0.9400 0.5964 0.0838
0.9600 0.6098 0.0843
0.9800 0.6231 0.0814
1.0000 0.6364 0.0796
1.0200 0.6498 0.0799
1.0400 0.6632 0.0760
1.0600 0.6765 0.0712
1.0800 0.6898 0.0747
1.1000 0.7032 0.0769
1.1200 0.7165 0.0667
1.1400 0.7298 0.0768
1.1600 0.7431 0.0718
1.1800 0.7564 0.0641
1.2000 0.7698 0.0747
1.2200 0.7831 0.0666
1.2400 0.7965 0.0573
1.2600 0.8098 0.0750
1.2800 0.8231 0.0650
1.3000 0.8364 0.0606
1.3200 0.8498 0.0658
1.3400 0.8631 0.0660
1.3600 0.8764 0.0577
1.3800 0.8898 0.0669
1.4000 0.9032 0.0625
1.4200 0.9165 0.0603
1.4400 0.9298 0.0627
1.4600 0.9432 0.0599
1.4800 0.9565 0.0546
1.5000 0.9699 0.0573
1.5200 0.9832 0.0592
1.5400 0.9965 0.0518
1.5600 1.0098 0.0520
1.5800 1.0231 0.0548
1.6000 1.0364 0.0497
1.6200 1.0497 0.0507
1.6400 1.0631 0.0562
1.6600 1.0764 0.0402
1.6800 1.0898 0.0492
1.7000 1.1031 0.0540
1.7200 1.1165 0.0444
1.7400 1.1298 0.0445
1.7600 1.1432 0.0544
1.7800 1.1565 0.0390
1.8000 1.1698 0.0444
1.8200 1.1831 0.0487
1.8400 1.1965 0.0366
1.8600 1.2099 0.0430
1.8800 1.2232 0.0471
1.9000 1.2365 0.0331
1.9200 1.2498 0.0451
1.9400 1.2631 0.0420
1.9600 1.2765 0.0317
1.9800 1.2898 0.0379
2.0000 1.3031 0.0422
2.0200 1.3164 0.0299
2.0400 1.3298 0.0351
2.0600 1.3431 0.0362
2.0800 1.3565 0.0334
2.1000 1.3698 0.0304
2.1200 1.3832 0.0355
2.1400 1.3965 0.0302
2.1600 1.4098 0.0310
2.1800 1.4232 0.0339
2.2000 1.4365 0.0290
2.2200 1.4498 0.0326
2.2400 1.4631 0.0316
2.2600 1.4764 0.0307
2.2800 1.4897 0.0237
2.3000 1.5031 0.0333
2.3200 1.5164 0.0261
2.3400 1.5297 0.0175
2.3600 1.5431 0.0252
2.3800 1.5565 0.0233
2.4000 1.5698 0.0157
2.4200 1.5832 0.0211
2.4400 1.5965 0.0211
2.4600 1.6098 0.0134
2.4800 1.6232 0.0151
2.5000 1.6365 0.0169
2.5200 1.6498 0.0112
2.5400 1.6631 0.0200
2.5600 1.6765 0.0149
2.5800 1.6898 0.0063
2.6000 1.7032 0.0182
2.6200 1.7165 0.0156
2.6400 1.7298 0.0026
2.6600 1.7432 0.0092
2.6800 1.7565 0.0135
2.7000 1.7698 0.0053
2.7200 1.7831 0.0084
2.7400 1.7964 0.0090
2.7600 1.8098 0.0040
2.7800 1.8231 0.0094
2.8000 1.8364 0.0077
2.8200 1.8498 0.0021
2.8400 1.8631 0.0100
2.8600 1.8765 -0.0003
2.8800 1.8898 0.0011
2.9000 1.9032 0.0089
2.9200 1.9165 0.0040
2.9400 1.9299 -0.0055
2.9600 1.9432 0.0071
2.9800 1.9565 0.0011
3.0000 1.9698 -0.0089
3.0200 1.9832 0.0073
3.0400 1.9965 -0.0018
3.0600 2.0098 -0.0088
3.0800 2.0231 0.0053
3.1000 2.0364 -0.0031
3.1200 2.0498 -0.0077
3.1400 2.0631 0.0046
3.1600 2.0764 -0.0067
3.1800 2.0898 -0.0159
3.2000 2.1032 0.0050
3.2200 2.1165 -0.0124
3.2400 2.1299 -0.0161
3.2600 2.1432 0.0061
3.2800 2.1565 -0.0164
3.3000 2.1699 -0.0166
3.3200 2.1832 -0.0006
3.3400 2.1965 -0.0151
3.3600 2.2098 -0.0166
3.3800 2.2231 0.0046
3.4000 2.2365 -0.0217
3.4200 2.2498 -0.0180
3.4400 2.2631 0.0004
3.4600 2.2764 -0.0161
3.4800 2.2898 -0.0242
3.5000 2.3031 -0.0050
3.5200 2.3165 -0.0155
3.5400 2.3298 -0.0233
3.5600 2.3432 -0.0128
3.5800 2.3565 -0.0193
3.6000 2.3698 -0.0230
3.6200 2.3832 -0.0136
3.6400 2.3965 -0.0233
3.6600 2.4099 -0.0262
3.6800 2.4232 -0.0212
3.7000 2.4365 -0.0198
3.7200 2.4498 -0.0287
3.7400 2.4631 -0.0251
3.7600 2.4765 -0.0182
3.7800 2.4898 -0.0324
3.8000 2.5030 -0.0200
3.8200 2.5164 -0.0207
3.8400 2.5297 -0.0335
3.8600 2.5431 -0.0274
3.8800 2.5564 -0.0179
3.9000 2.5698 -0.0374
3.9200 2.5832 -0.0284
3.9400 2.5966 -0.0210
3.9600 2.6099 -0.0390
3.9800 2.6232 -0.0260
4.0000 2.6365 -0.0198
4.0200 2.6499 -0.0430
4.0400 2.6632 -0.0209
4.0600 2.6765 -0.0303
4.0800 2.6898 -0.0459
4.1000 2.7031 -0.0220
4.1200 2.7165 -0.0280
4.1400 2.7298 -0.0499
4.1600 2.7431 -0.0255
4.1800 2.7564 -0.0291
4.2000 2.7698 -0.0525
4.2200 2.7831 -0.0313
4.2400 2.7964 -0.0339
4.2600 2.8098 -0.0444
4.2800 2.8232 -0.0312
4.3000 2.8365 -0.0430
4.3200 2.8498 -0.0455
4.3400 2.8632 -0.0332
4.3600 2.8765 -0.0459
4.3800 2.8899 -0.0432
4.4000 2.9032 -0.0370
4.4200 2.9165 -0.0458
4.4400 2.9298 -0.0463
4.4600 2.9431 -0.0333
4.4800 2.9565 -0.0521
4.5000 2.9698 -0.0472
4.5200 2.9831 -0.0428
4.5400 2.9964 -0.0529
4.5600 3.0098 -0.0481
4.5800 3.0231 -0.0460
4.6000 3.0364 -0.0545
4.6200 3.0498 -0.0497
4.6400 3.0631 -0.0512
4.6600 3.0765 -0.0576
4.6800 3.0898 -0.0535
4.7000 3.1031 -0.0463
4.7200 3.1165 -0.0665
4.7400 3.1298 -0.0512
4.7600 3.1432 -0.0540
4.7800 3.1565 -0.0667
4.8000 3.1698 -0.0532
4.8200 3.1832 -0.0547
4.8400 3.1965 -0.0672
4.8600 3.2098 -0.0593
4.8800 3.2231 -0.0544
4.9000 3.2364 -0.0653
4.9200 3.2498 -0.0571
4.9400 3.2631 -0.0657
4.9600 3.2764 -0.0662
4.9800 3.2898 -0.0571
5.0000 3.3032 -0.0660
5.0200 3.3166 -0.0685
5.0400 3.3299 -0.0559
5.0600 3.3432 -0.0750
5.0800 3.3565 -0.0664
5.1000 3.3699 -0.0610
5.1200 3.3832 -0.0664
5.1400 3.3965 -0.0686
5.1600 3.4098 -0.0629
5.1800 3.4231 -0.0673
5.2000 3.4365 -0.0680
5.2200 3.4498 -0.0614
5.2400 3.4631 -0.0719
5.2600 3.4764 -0.0712
5.2800 3.4898 -0.0648
5.3000 3.5031 -0.0789
5.3200 3.5164 -0.0694
5.3400 3.5298 -0.0676
5.3600 3.5432 -0.0798
5.3800 3.5565 -0.0680
5.4000 3.5699 -0.0665
5.4200 3.5832 -0.0835
5.4400 3.5965 -0.0722
5.4600 3.6099 -0.0674
5.4800 3.6232 -0.0884
5.5000 3.6365 -0.0693
5.5200 3.6498 -0.0706
5.5400 3.6631 -0.0866
5.5600 3.6765 -0.0691
5.5800 3.6898 -0.0710
5.6000 3.7031 -0.0902
5.6200 3.7164 -0.0710
5.6400 3.7298 -0.0763
5.6600 3.7431 -0.0923
5.6800 3.7565 -0.0736
5.7000 3.7698 -0.0791
5.7200 3.7831 -0.0928
5.7400 3.7965 -0.0719
5.7600 3.8098 -0.0857
5.7800 3.8231 -0.0883
5.8000 3.8365 -0.0784
5.8200 3.8499 -0.0833
5.8400 3.8632 -0.0900
5.8600 3.8765 -0.0787
5.8800 3.8898 -0.0914
5.9000 3.9032 -0.0913
5.9200 3.9165 -0.0822
5.9400 3.9298 -0.0914
5.9600 3.9431 -0.0939
5.9800 3.9564 -0.0811
6.0000 3.9698 -0.0899
6.0200 3.9831 -0.0971
6.0400 3.9965 -0.0807
6.0600 4.0098 -0.0880
6.0800 4.0232 -0.0991
6.1000 4.0365 -0.0860
6.1200 4.0499 -0.0897
6.1400 4.0632 -0.1018
6.1600 4.0765 -0.0820
6.1800 4.0899 -0.0900
6.2000 4.1032 -0.1010
6.2200 4.1165 -0.0909
6.2400 4.1298 -0.0912
6.2600 4.1431 -0.1024
6.2800 4.1565 -0.0873
6.3000 4.1698 -0.0937
6.3200 4.1831 -0.1096
6.3400 4.1964 -0.0882
6.3600 4.2098 -0.0921
6.3800 4.2231 -0.1102
6.4000 4.2364 -0.0868
6.4200 4.2498 -0.0981
6.4400 4.2631 -0.1095
6.4600 4.2765 -0.0911
6.4800 4.2898 -0.1004
6.5000 4.3032 -0.1082
6.5200 4.3165 -0.0903
6.5400 4.3299 -0.0997
6.5600 4.3432 -0.1135
6.5800 4.3565 -0.0907
6.6000 4.3698 -0.1030
6.6200 4.3831 -0.1090
6.6400 4.3965 -0.0939
6.6600 4.4098 -0.1090
6.6800 4.4231 -0.1073
6.7000 4.4364 -0.0929
6.7200 4.4497 -0.1097
6.7400 4.4631 -0.1078
6.7600 4.4764 -0.1004
6.7800 4.4898 -0.1094
6.8000 4.5031 -0.1071
6.8200 4.5165 -0.1021
6.8400 4.5298 -0.1112
6.8600 4.5431 -0.1046
6.8800 4.5565 -0.1057
6.9000 4.5698 -0.1078
6.9200 4.5832 -0.1093
6.9400 4.5965 -0.1030
6.9600 4.6098 -0.1033
6.9800 4.6231 -0.1097
7.0000 4.6365 -0.1097
7.0200 4.6498 -0.1072
7.0400 4.6631 -0.1057
7.0600 4.6764 -0.1114
7.0800 4.6897 -0.1074
7.1000 4.7031 -0.1067
7.1200 4.7164 -0.1142
7.1400 4.7297 -0.1087
7.1600 4.7431 -0.1062
7.1800 4.7565 -0.1140
7.2000 4.7699 -0.1090
7.2200 4.7832 -0.1151
7.2400 4.7966 -0.1167
7.2600 4.8099 -0.1061
7.2800 4.8232 -0.1169
7.3000 4.8365 -0.1239
7.3200 4.8498 -0.1047
7.3400 4.8631 -0.1186
7.3600 4.8764 -0.1182
7.3800 4.8898 -0.1099
7.4000 4.9031 -0.1188
7.4200 4.9164 -0.1216
7.4400 4.9298 -0.1144
7.4600 4.9431 -0.1228
7.4800 4.9565 -0.1205
7.5000 4.9698 -0.1106
7.5200 4.9832 -0.1275
7.5400 4.9965 -0.1261
7.5600 5.0099 -0.1128
7.5800 5.0232 -0.1297
7.6000 5.0365 -0.1239
7.6200 5.0499 -0.1141
7.6400 5.0632 -0.1281
7.6600 5.0765 -0.1236
7.6800 5.0898 -0.1199
7.7000 5.1031 -0.1222
7.7200 5.1165 -0.1293
7.7400 5.1298 -0.1171
7.7600 5.1431 -0.1308
7.7800 5.1564 -0.1251
7.8000 5.1697 -0.1199
7.8200 5.1831 -0.1309
7.8400 5.1964 -0.1279
7.8600 5.2098 -0.1221
7.8800 5.2231 -0.1350
7.9000 5.2365 -0.1264
7.9200 5.2499 -0.1250
7.9400 5.2632 -0.1381
7.9600 5.2765 -0.1246
7.9800 5.2898 -0.1281
8.0000 5.3032 -0.1413
8.0200 5.3165 -0.1212
8.0400 5.3298 -0.1338
8.0600 5.3431 -0.1383
8.0800 5.3565 -0.1269
8.1000 5.3698 -0.1373
8.1200 5.3831 -0.1375
8.1400 5.3964 -0.1265
8.1600 5.4097 -0.1385
8.1800 5.4231 -0.1402
8.2000 5.4364 -0.1301
8.2200 5.4498 -0.1444
8.2400 5.4631 -0.1362
8.2600 5.4765 -0.1285
8.2800 5.4899 -0.1492
8.3000 5.5032 -0.1391
8.3200 5.5165 -0.1298
8.3400 5.5298 -0.1495
8.3600 5.5432 -0.1359
8.3800 5.5565 -0.1392
8.4000 5.5698 -0.1464
8.4200 5.5831 -0.1391
8.4400 5.5965 -0.1406
8.4600 5.6098 -0.1487
8.4800 5.6231 -0.1339
8.5000 5.6364 -0.1476
8.5200 5.6498 -0.1480
8.5400 5.6631 -0.1382
8.5600 5.6765 -0.1454
8.5800 5.6898 -0.1441
8.6000 5.7031 -0.1385
8.6200 5.7165 -0.1506
8.6400 5.7299 -0.1433
8.6600 5.7432 -0.1441
8.6800 5.7565 -0.1487
8.7000 5.7698 -0.1452
8.7200 5.7832 -0.1480
8.7400 5.7965 -0.1487
8.7600 5.8098 -0.1452
8.7800 5.8231 -0.1419
8.8000 5.8365 -0.1491
8.8200 5.8498 -0.1521
8.8400 5.8631 -0.1509
8.8600 5.8764 -0.1456
8.8800 5.8897 -0.1504
8.9000 5.9031 -0.1529
8.9200 5.9165 -0.1486
8.9400 5.9298 -0.1503
8.9600 5.9432 -0.1568
8.9800 5.9565 -0.1483
9.0000 5.9699 -0.1573
9.0200 5.9832 -0.1555
9.0400 5.9965 -0.1549
9.0600 6.0098 -0.1552
9.0800 6.0232 -0.1571
9.1000 6.0365 -0.1525
9.1200 6.0498 -0.1621
9.1400 6.0631 -0.1577
9.1600 6.0764 -0.1548
9.1800 6.0898 -0.1679
9.2000 6.1031 -0.1540
9.2200 6.1164 -0.1508
9.2400 6.1297 -0.1714
9.2600 6.1431 -0.1550
9.2800 6.1564 -0.1580
9.3000 6.1698 -0.1745
9.3200 6.1831 -0.1555
9.3400 6.1965 -0.1637
9.3600 6.2099 -0.1730
9.3800 6.2232 -0.1509
9.4000 6.2365 -0.1677
9.4200 6.2499 -0.1807
9.4400 6.2632 -0.1529
9.4600 6.2765 -0.1676
9.4800 6.2898 -0.1769
9.5000 6.3031 -0.1572
9.5200 6.3164 -0.1700
9.5400 6.3298 -0.1772
9.5600 6.3431 -0.1551
9.5800 6.3564 -0.1757
9.6000 6.3698 -0.1713
9.6200 6.3831 -0.1584
9.6400 6.3965 -0.1771
9.6600 6.4098 -0.1726
9.6800 6.4231 -0.1524
9.7000 6.4365 -0.1740
9.7200 6.4499 -0.1744
9.7400 6.4632 -0.1642
9.7600 6.4765 -0.1750
9.7800 6.4898 -0.1705
9.8000 6.5032 -0.1649
9.8200 6.5165 -0.1767
9.8400 6.5298 -0.1676
9.8600 6.5432 -0.1610
9.8800 6.5565 -0.1740
9.9000 6.5698 -0.1691
9.9200 6.5831 -0.1689
9.9400 6.5964 -0.1755
9.9600 6.6098 -0.1706
9.9800 6.6231 -0.1637
10.0000 6.6364 -0.1723
10.0200 6.6497 -0.1703
10.0400 6.6631 -0.1713
10.0600 6.6765 -0.1698
10.0800 6.6898 -0.1696
10.1000 6.7032 -0.1717
10.1200 6.7165 -0.1768
10.1400 6.7298 -0.1708
10.1600 6.7432 -0.1713
10.1800 6.7565 -0.1741
10.2000 6.7698 -0.1736
10.2200 6.7832 -0.1737
10.2400 6.7965 -0.1726
10.2600 6.8098 -0.1766
10.2800 6.8231 -0.1793
10.3000 6.8365 -0.1719
10.3200 6.8498 -0.1748
10.3400 6.8631 -0.1848
10.3600 6.8764 -0.1708
10.3800 6.8898 -0.1743
10.4000 6.9031 -0.1802
10.4200 6.9165 -0.1650
10.4400 6.9299 -0.1792
10.4600 6.9432 -0.1842
10.4800 6.9565 -0.1656
10.5000 6.9698 -0.1825
10.5200 6.9832 -0.1839
10.5400 6.9965 -0.1645
10.5600 7.0098 -0.1825
10.5800 7.0231 -0.1839
10.6000 7.0364 -0.1660
10.6200 7.0498 -0.1855
10.6400 7.0631 -0.1765
10.6600 7.0764 -0.1717
10.6800 7.0898 -0.1872
10.7000 7.1031 -0.1789
10.7200 7.1165 -0.1742
10.7400 7.1298 -0.1894
10.7600 7.1431 -0.1747
10.7800 7.1565 -0.1802
10.8000 7.1698 -0.1918
10.8200 7.1832 -0.1721
10.8400 7.1965 -0.1789
10.8600 7.2098 -0.1936
10.8800 7.2232 -0.1752
10.9000 7.2365 -0.1822
10.9200 7.2498 -0.1908
10.9400 7.2631 -0.1700
10.9600 7.2765 -0.1828
10.9800 7.2898 -0.1918
11.0000 7.3031 -0.1752
11.0200 7.3164 -0.1817
11.0400 7.3297 -0.1934
11.0600 7.3431 -0.1762
11.0800 7.3564 -0.1830
11.1000 7.3698 -0.1943
11.1200 7.3831 -0.1783
11.1400 7.3965 -0.1873
11.1600 7.4099 -0.1951
11.1800 7.4232 -0.1801
11.2000 7.4365 -0.1918
11.2200 7.4498 -0.1934
11.2400 7.4632 -0.1836
11.2600 7.4765 -0.1921
11.2800 7.4899 -0.1994
11.3000 7.5032 -0.1889
11.3200 7.5165 -0.1937
11.3400 7.5298 -0.1956
11.3600 7.5432 -0.1922
11.3800 7.5565 -0.1943
11.4000 7.5698 -0.1998
11.4200 7.5831 -0.1937
11.4400 7.5964 -0.2017
11.4600 7.6097 -0.1982
11.4800 7.6231 -0.1917
11.5000 7.6365 -0.2050
11.5200 7.6499 -0.2068
11.5400 7.6632 -0.1994
11.5600 7.6765 -0.2003
11.5800 7.6898 -0.2085
11.6000 7.7032 -0.1994
11.6200 7.7165 -0.2019
11.6400 7.7298 -0.2091
11.6600 7.7431 -0.2006
11.6800 7.7564 -0.2016
11.7000 7.7698 -0.2105
11.7200 7.7831 -0.1994
11.7400 7.7964 -0.2084
11.7600 7.8098 -0.2099
11.7800 7.8231 -0.1976
11.8000 7.8365 -0.2021
11.8200 7.8498 -0.2102
11.8400 7.8631 -0.2024
11.8600 7.8764 -0.2043
11.8800 7.8898 -0.2116
11.9000 7.9031 -0.2008
11.9200 7.9164 -0.1991
11.9400 7.9298 -0.2137
11.9600 7.9431 -0.2023
11.9800 7.9565 -0.1948
12.0000 7.9698 -0.2099
12.0200 7.9832 -0.2078
12.0400 7.9965 -0.1915
12.0600 8.0098 -0.2031
12.0800 8.0232 -0.2180
12.1000 8.0365 -0.1920
12.1200 8.0497 -0.2019
12.1400 8.0631 -0.2123
12.1600 8.0764 -0.1934
12.1800 8.0897 -0.1993
12.2000 8.1031 -0.2150
12.2200 8.1165 -0.1977
12.2400 8.1299 -0.2011
12.2600 8.1432 -0.2127
12.2800 8.1566 -0.2007
12.3000 8.1699 -0.2008
12.3200 8.1832 -0.2090
12.3400 8.1966 -0.2031
12.3600 8.2098 -0.2049
12.3800 8.2231 -0.2059
12.4000 8.2364 -0.2010
12.4200 8.2498 -0.2046
12.4400 8.2631 -0.2060
12.4600 8.2764 -0.2010
12.4800 8.2897 -0.2047
12.5000 8.3031 -0.2077
12.5200 8.3164 -0.1978
12.5400 8.3298 -0.2078
12.5600 8.3431 -0.2071
12.5800 8.3565 -0.1965
12.6000 8.3699 -0.2067
12.6200 8.3832 -0.2163
12.6400 8.3965 -0.1974
12.6600 8.4099 -0.2035
12.6800 8.4232 -0.2186
12.7000 8.4365 -0.2011
12.7200 8.4498 -0.1995
12.7400 8.4631 -0.2153
12.7600 8.4764 -0.2057
12.7800 8.4898 -0.2062
12.8000 8.5031 -0.2134
12.8200 8.5164 -0.2093
12.8400 8.5297 -0.2033
12.8600 8.5431 -0.2157
12.8800 8.5565 -0.2130
12.9000 8.5698 -0.2104
12.9200 8.5831 -0.2134
12.9400 8.5965 -0.2107
12.9600 8.6098 -0.2129
12.9800 8.6232 -0.2175
13.0000 8.6365 -0.2130
13.0200 8.6498 -0.2085
13.0400 8.6632 -0.2161
13.0600 8.6765 -0.2174
13.0800 8.6899 -0.2179
13.1000 8.7032 -0.2170
13.1200 8.7165 -0.2088
13.1400 8.7298 -0.2151
13.1600 8.7432 -0.2268
13.1800 8.7564 -0.2162
13.2000 8.7697 -0.2129
13.2200 8.7831 -0.2237
13.2400 8.7964 -0.2168
13.2600 8.8098 -0.2125
13.2800 8.8231 -0.2276
13.3000 8.8365 -0.2166
13.3200 8.8499 -0.2175
13.3400 8.8632 -0.2254
13.3600 8.8765 -0.2144
13.3800 8.8898 -0.2246
13.4000 8.9032 -0.2258
13.4200 8.9165 -0.2066
13.4400 8.9298 -0.2288
13.4600 8.9431 -0.2341
13.4800 8.9564 -0.2113
13.5000 8.9698 -0.2255
13.5200 8.9831 -0.2323
13.5400 8.9965 -0.2120
13.5600 9.0098 -0.2304
13.5800 9.0231 -0.2302
13.6000 9.0364 -0.2150
13.6200 9.0498 -0.2340
13.6400 9.0631 -0.2295
13.6600 9.0764 -0.2178
13.6800 9.0898 -0.2378
13.7000 9.1032 -0.2332
13.7200 9.1165 -0.2212
13.7400 9.1298 -0.2346
13.7600 9.1432 -0.2338
13.7800 9.1566 -0.2249
13.8000 9.1699 -0.2300
13.8200 9.1832 -0.2328
13.8400 9.1964 -0.2281
13.8600 9.2098 -0.2319
13.8800 9.2231 -0.2319
13.9000 9.2364 -0.2354
13.9200 9.2498 -0.2270
13.9400 9.2631 -0.2356
13.9600 9.2764 -0.2353
13.9800 9.2898 -0.2297
14.0000 9.3031 -0.2380
14.0200 9.3165 -0.2401
14.0400 9.3298 -0.2290
14.0600 9.3432 -0.2398
14.0800 9.3565 -0.2434
14.1000 9.3698 -0.2284
14.1200 9.3832 -0.2350
14.1400 9.3965 -0.2467
14.1600 9.4098 -0.2271
14.1800 9.4232 -0.2395
14.2000 9.4365 -0.2433
14.2200 9.4498 -0.2314
14.2400 9.4632 -0.2479
14.2600 9.4764 -0.2428
14.2800 9.4897 -0.2313
14.3000 9.5030 -0.2438
14.3200 9.5164 -0.2494
14.3400 9.5297 -0.2324
14.3600 9.5431 -0.2455
14.3800 9.5564 -0.2446
14.4000 9.5698 -0.2346
14.4200 9.5832 -0.2485
14.4400 9.5966 -0.2476
14.4600 9.6099 -0.2390
14.4800 9.6232 -0.2463
14.5000 9.6365 -0.2472
14.5200 9.6498 -0.2451
14.5400 9.6631 -0.2431
14.5600 9.6764 -0.2501
14.5800 9.6898 -0.2405
14.6000 9.7031 -0.2443
14.6200 9.7164 -0.2517
14.6400 9.7298 -0.2463
14.6600 9.7431 -0.2434
14.6800 9.7565 -0.2507
14.7000 9.7698 -0.2477
14.7200 9.7831 -0.2450
14.7400 9.7965 -0.2525
14.7600 9.8098 -0.2445
14.7800 9.8232 -0.2440
14.8000 9.8365 -0.2568
14.8200 9.8498 -0.2434
14.8400 9.8632 -0.2483
14.8600 9.8765 -0.2545
14.8800 9.8898 -0.2424
14.9000 9.9031 -0.2499
14.9200 9.9164 -0.2493
14.9400 9.9298 -0.2444
14.9600 9.9431 -0.2472
14.9800 9.9565 -0.2579
15.0000 9.9698 -0.2441
15.0200 9.9831 -0.2445
15.0400 9.9964 -0.2552
15.0600 10.0098 -0.2444
15.0800 10.0231 -0.2390
15.1000 10.0365 -0.2611
15.1200 10.0498 -0.2558
15.1400 10.0632 -0.2367
15.1600 10.0765 -0.2468
15.1800 10.0898 -0.2540
15.2000 10.1032 -0.2566
15.2200 10.1165 -0.2519
15.2400 10.1299 -0.2367
15.2600 10.1432 -0.2440
15.2800 10.1565 -0.2682
15.3000 10.1698 -0.2513
15.3200 10.1831 -0.2300
15.3400 10.1964 -0.2603
15.3600 10.2097 -0.2598
15.3800 10.2230 -0.2417
15.4000 10.2364 -0.2522
15.4200 10.2498 -0.2533
15.4400 10.2631 -0.2515
15.4600 10.2765 -0.2574
15.4800 10.2898 -0.2533
15.5000 10.3032 -0.2496
15.5200 10.3166 -0.2611
15.5400 10.3299 -0.2533
15.5600 10.3432 -0.2473
15.5800 10.3565 -0.2658
15.6000 10.3699 -0.2614
15.6200 10.3831 -0.2440
15.6400 10.3964 -0.2588
15.6600 10.4098 -0.2548
15.6800 10.4231 -0.2567
15.7000 10.4365 -0.2577
15.7200 10.4498 -0.2503
15.7400 10.4631 -0.2561
15.7600 10.4764 -0.2664
15.7800 10.4898 -0.2495
15.8000 10.5031 -0.2552
15.8200 10.5164 -0.2673
15.8400 10.5298 -0.2467
15.8600 10.5431 -0.2536
15.8800 10.5565 -0.2648
15.9000 10.5698 -0.2534
15.9200 10.5832 -0.2584
15.9400 10.5965 -0.2556
15.9600 10.6099 -0.2507
15.9800 10.6232 -0.2621
16.0000 10.6365 -0.2598
16.0200 10.6498 -0.2476
16.0400 10.6631 -0.2555
16.0600 10.6764 -0.2641
16.0800 10.6898 -0.2459
16.1000 10.7031 -0.2574
16.1200 10.7164 -0.2607
16.1400 10.7298 -0.2547
16.1600 10.7431 -0.2546
16.1800 10.7564 -0.2562
16.2000 10.7698 -0.2612
16.2200 10.7832 -0.2589
16.2400 10.7965 -0.2571
16.2600 10.8099 -0.2674
16.2800 10.8232 -0.2598
16.3000 10.8365 -0.2600
16.3200 10.8499 -0.2644
16.3400 10.8632 -0.2609
16.3600 10.8765 -0.2584
16.3800 10.8898 -0.2608
16.4000 10.9032 -0.2558
16.4200 10.9165 -0.2645
16.4400 10.9298 -0.2690
16.4600 10.9431 -0.2492
16.4800 10.9564 -0.2638
16.5000 10.9698 -0.2734
16.5200 10.9831 -0.2571
16.5400 10.9964 -0.2630
16.5600 11.0098 -0.2660
16.5800 11.0232 -0.2641
16.6000 11.0365 -0.2724
16.6200 11.0498 -0.2656
16.6400 11.0632 -0.2634
16.6600 11.0765 -0.2665
16.6800 11.0899 -0.2690
16.7000 11.1031 -0.2702
16.7200 11.1164 -0.2684
16.7400 11.1297 -0.2638
16.7600 11.1431 -0.2733
16.7800 11.1564 -0.2694
16.8000 11.1698 -0.2626
16.8200 11.1831 -0.2692
16.8400 11.1964 -0.2742
16.8600 11.2098 -0.2668
16.8800 11.2232 -0.2633
16.9000 11.2365 -0.2746
16.9200 11.2498 -0.2738
16.9400 11.2632 -0.2620
16.9600 11.2765 -0.2787
16.9800 11.2898 -0.2711
17.0000 11.3031 -0.2564
17.0200 11.3165 -0.2796
17.0400 11.3299 -0.2783
17.0600 11.3432 -0.2503
