Raw Data
Time Displacement Force
(s) (mm) (N)
0.0000 0.0000 0.2161
0.0200 0.0001 0.2073
0.0400 0.0022 0.3053
0.0600 0.0100 0.2916
0.0800 0.0219 0.1882
0.1000 0.0344 0.2223
0.1200 0.0471 0.2457
0.1400 0.0605 0.1944
0.1600 0.0746 0.2240
0.1800 0.0888 0.2145
0.2000 0.1027 0.1880
0.2200 0.1163 0.2255
0.2400 0.1296 0.2222
0.2600 0.1429 0.1881
0.2800 0.1562 0.2356
0.3000 0.1696 0.2173
0.3200 0.1830 0.1868
0.3400 0.1963 0.2394
0.3600 0.2097 0.2092
0.3800 0.2230 0.1895
0.4000 0.2364 0.2303
0.4200 0.2497 0.1969
0.4400 0.2630 0.1976
0.4600 0.2763 0.2219
0.4800 0.2897 0.1953
0.5000 0.3030 0.1913
0.5200 0.3163 0.2131
0.5400 0.3296 0.1958
0.5600 0.3430 0.1845
0.5800 0.3563 0.2057
0.6000 0.3697 0.1856
0.6200 0.3830 0.1841
0.6400 0.3964 0.1966
0.6600 0.4097 0.1822
0.6800 0.4231 0.1787
0.7000 0.4364 0.1850
0.7200 0.4497 0.1766
0.7400 0.4630 0.1741
0.7600 0.4764 0.1818
0.7800 0.4897 0.1764
0.8000 0.5030 0.1567
0.8200 0.5163 0.1770
0.8400 0.5297 0.1648
0.8600 0.5430 0.1544
0.8800 0.5563 0.1681
0.9000 0.5696 0.1590
0.9200 0.5829 0.1487
0.9400 0.5963 0.1605
0.9600 0.6096 0.1518
0.9800 0.6230 0.1445
1.0000 0.6363 0.1555
1.0200 0.6497 0.1442
1.0400 0.6631 0.1390
1.0600 0.6764 0.1538
1.0800 0.6897 0.1299
1.1000 0.7030 0.1354
1.1200 0.7164 0.1448
1.1400 0.7297 0.1258
1.1600 0.7430 0.1304
1.1800 0.7563 0.1365
1.2000 0.7697 0.1284
1.2200 0.7830 0.1186
1.2400 0.7964 0.1331
1.2600 0.8097 0.1204
1.2800 0.8230 0.1167
1.3000 0.8363 0.1289
1.3200 0.8497 0.1127
1.3400 0.8630 0.1149
1.3600 0.8763 0.1252
1.3800 0.8897 0.1098
1.4000 0.9031 0.1101
1.4200 0.9164 0.1152
1.4400 0.9297 0.1095
1.4600 0.9430 0.1053
1.4800 0.9564 0.1131
1.5000 0.9697 0.1013
1.5200 0.9830 0.0993
1.5400 0.9963 0.1055
1.5600 1.0097 0.0974
1.5800 1.0230 0.0990
1.6000 1.0363 0.0962
1.6200 1.0496 0.0970
1.6400 1.0629 0.0917
1.6600 1.0763 0.0869
1.6800 1.0897 0.0926
1.7000 1.1030 0.0794
1.7200 1.1163 0.0829
1.7400 1.1297 0.0862
1.7600 1.1431 0.0771
1.7800 1.1564 0.0846
1.8000 1.1697 0.0802
1.8200 1.1830 0.0784
1.8400 1.1964 0.0809
1.8600 1.2097 0.0845
1.8800 1.2230 0.0713
1.9000 1.2363 0.0833
1.9200 1.2497 0.0827
1.9400 1.2630 0.0689
1.9600 1.2764 0.0778
1.9800 1.2896 0.0738
2.0000 1.3030 0.0696
2.0200 1.3163 0.0758
2.0400 1.3296 0.0675
2.0600 1.3430 0.0687
2.0800 1.3563 0.0678
2.1000 1.3697 0.0639
2.1200 1.3831 0.0583
2.1400 1.3964 0.0612
2.1600 1.4097 0.0589
2.1800 1.4231 0.0571
2.2000 1.4364 0.0550
2.2200 1.4497 0.0470
2.2400 1.4630 0.0560
2.2600 1.4763 0.0471
2.2800 1.4896 0.0441
2.3000 1.5030 0.0468
2.3200 1.5163 0.0452
2.3400 1.5296 0.0414
2.3600 1.5430 0.0467
2.3800 1.5563 0.0335
2.4000 1.5697 0.0389
2.4200 1.5830 0.0411
2.4400 1.5964 0.0282
2.4600 1.6097 0.0357
2.4800 1.6231 0.0408
2.5000 1.6364 0.0223
2.5200 1.6497 0.0343
2.5400 1.6630 0.0291
2.5600 1.6764 0.0234
2.5800 1.6897 0.0294
2.6000 1.7031 0.0250
2.6200 1.7164 0.0174
2.6400 1.7297 0.0255
2.6600 1.7431 0.0225
2.6800 1.7564 0.0084
2.7000 1.7697 0.0273
2.7200 1.7830 0.0163
2.7400 1.7963 0.0005
2.7600 1.8097 0.0200
2.7800 1.8230 0.0103
2.8000 1.8363 -0.0026
2.8200 1.8497 0.0174
2.8400 1.8630 0.0034
2.8600 1.8764 -0.0012
2.8800 1.8897 0.0100
2.9000 1.9030 -0.0010
2.9200 1.9164 -0.0031
2.9400 1.9297 0.0056
2.9600 1.9430 -0.0070
2.9800 1.9564 -0.0010
3.0000 1.9697 -0.0002
3.0200 1.9831 -0.0094
3.0400 1.9964 -0.0069
3.0600 2.0097 -0.0030
3.0800 2.0230 -0.0112
3.1000 2.0363 -0.0072
3.1200 2.0497 -0.0085
3.1400 2.0630 -0.0156
3.1600 2.0763 -0.0117
3.1800 2.0897 -0.0148
3.2000 2.1031 -0.0236
3.2200 2.1164 -0.0144
3.2400 2.1297 -0.0177
3.2600 2.1431 -0.0247
3.2800 2.1564 -0.0160
3.3000 2.1697 -0.0257
3.3200 2.1830 -0.0229
3.3400 2.1963 -0.0156
3.3600 2.2097 -0.0248
3.3800 2.2230 -0.0271
3.4000 2.2363 -0.0231
3.4200 2.2497 -0.0317
3.4400 2.2630 -0.0250
3.4600 2.2763 -0.0294
3.4800 2.2897 -0.0352
3.5000 2.3030 -0.0347
3.5200 2.3163 -0.0315
3.5400 2.3297 -0.0366
3.5600 2.3431 -0.0316
3.5800 2.3564 -0.0368
3.6000 2.3697 -0.0426
3.6200 2.3831 -0.0400
3.6400 2.3964 -0.0417
3.6600 2.4098 -0.0433
3.6800 2.4231 -0.0422
3.7000 2.4364 -0.0494
3.7200 2.4497 -0.0475
3.7400 2.4630 -0.0481
3.7600 2.4764 -0.0521
3.7800 2.4896 -0.0501
3.8000 2.5029 -0.0475
3.8200 2.5163 -0.0517
3.8400 2.5296 -0.0592
3.8600 2.5430 -0.0542
3.8800 2.5563 -0.0558
3.9000 2.5697 -0.0560
3.9200 2.5831 -0.0595
3.9400 2.5964 -0.0591
3.9600 2.6098 -0.0645
3.9800 2.6231 -0.0590
4.0000 2.6364 -0.0598
4.0200 2.6497 -0.0692
4.0400 2.6630 -0.0653
4.0600 2.6763 -0.0612
4.0800 2.6897 -0.0745
4.1000 2.7030 -0.0667
4.1200 2.7164 -0.0659
4.1400 2.7297 -0.0773
4.1600 2.7430 -0.0753
4.1800 2.7563 -0.0683
4.2000 2.7696 -0.0855
4.2200 2.7830 -0.0756
4.2400 2.7963 -0.0701
4.2600 2.8097 -0.0847
4.2800 2.8231 -0.0795
4.3000 2.8364 -0.0788
4.3200 2.8497 -0.0911
4.3400 2.8630 -0.0803
4.3600 2.8764 -0.0812
4.3800 2.8898 -0.0924
4.4000 2.9031 -0.0821
4.4200 2.9164 -0.0871
4.4400 2.9297 -0.0904
4.4600 2.9430 -0.0848
4.4800 2.9563 -0.0853
4.5000 2.9697 -0.1011
4.5200 2.9830 -0.0858
4.5400 2.9963 -0.0959
4.5600 3.0097 -0.1012
4.5800 3.0230 -0.0932
4.6000 3.0363 -0.0979
4.6200 3.0497 -0.1035
4.6400 3.0630 -0.0960
4.6600 3.0764 -0.1033
4.6800 3.0897 -0.1051
4.7000 3.1030 -0.1016
4.7200 3.1163 -0.1030
4.7400 3.1297 -0.1084
4.7600 3.1431 -0.1103
4.7800 3.1564 -0.1091
4.8000 3.1697 -0.1118
4.8200 3.1831 -0.1144
4.8400 3.1964 -0.1079
4.8600 3.2097 -0.1194
4.8800 3.2230 -0.1134
4.9000 3.2363 -0.1048
4.9200 3.2496 -0.1208
4.9400 3.2630 -0.1128
4.9600 3.2763 -0.1143
4.9800 3.2897 -0.1230
5.0000 3.3031 -0.1206
5.0200 3.3164 -0.1140
5.0400 3.3298 -0.1311
5.0600 3.3431 -0.1223
5.0800 3.3564 -0.1171
5.1000 3.3698 -0.1346
5.1200 3.3831 -0.1191
5.1400 3.3964 -0.1185
5.1600 3.4097 -0.1376
5.1800 3.4230 -0.1196
5.2000 3.4363 -0.1300
5.2200 3.4496 -0.1380
5.2400 3.4629 -0.1227
5.2600 3.4763 -0.1296
5.2800 3.4896 -0.1447
5.3000 3.5030 -0.1255
5.3200 3.5163 -0.1311
5.3400 3.5297 -0.1394
5.3600 3.5430 -0.1260
5.3800 3.5564 -0.1395
5.4000 3.5698 -0.1440
5.4200 3.5831 -0.1335
5.4400 3.5964 -0.1376
5.4600 3.6098 -0.1469
5.4800 3.6231 -0.1350
5.5000 3.6364 -0.1410
5.5200 3.6497 -0.1497
5.5400 3.6630 -0.1337
5.5600 3.6763 -0.1426
5.5800 3.6897 -0.1541
5.6000 3.7030 -0.1374
5.6200 3.7163 -0.1532
5.6400 3.7296 -0.1568
5.6600 3.7430 -0.1477
5.6800 3.7564 -0.1524
5.7000 3.7697 -0.1602
5.7200 3.7830 -0.1474
5.7400 3.7964 -0.1563
5.7600 3.8097 -0.1627
5.7800 3.8230 -0.1511
5.8000 3.8364 -0.1535
5.8200 3.8497 -0.1677
5.8400 3.8631 -0.1591
5.8600 3.8764 -0.1589
5.8800 3.8897 -0.1664
5.9000 3.9031 -0.1629
5.9200 3.9164 -0.1619
5.9400 3.9297 -0.1706
5.9600 3.9430 -0.1671
5.9800 3.9563 -0.1579
6.0000 3.9696 -0.1732
6.0200 3.9830 -0.1674
6.0400 3.9963 -0.1631
6.0600 4.0097 -0.1778
6.0800 4.0231 -0.1716
6.1000 4.0364 -0.1655
6.1200 4.0498 -0.1855
6.1400 4.0631 -0.1758
6.1600 4.0764 -0.1645
6.1800 4.0897 -0.1900
6.2000 4.1031 -0.1783
6.2200 4.1164 -0.1642
6.2400 4.1297 -0.1919
6.2600 4.1430 -0.1745
6.2800 4.1564 -0.1755
6.3000 4.1697 -0.1985
6.3200 4.1830 -0.1787
6.3400 4.1963 -0.1753
6.3600 4.2096 -0.2010
6.3800 4.2230 -0.1786
6.4000 4.2363 -0.1793
6.4200 4.2497 -0.2032
6.4400 4.2630 -0.1790
6.4600 4.2764 -0.1840
6.4800 4.2897 -0.2095
6.5000 4.3030 -0.1818
6.5200 4.3164 -0.1920
6.5400 4.3298 -0.2071
6.5600 4.3431 -0.1827
6.5800 4.3564 -0.1958
6.6000 4.3697 -0.2061
6.6200 4.3830 -0.1816
6.6400 4.3963 -0.1962
6.6600 4.4097 -0.2097
6.6800 4.4230 -0.1776
6.7000 4.4363 -0.2030
6.7200 4.4496 -0.2074
6.7400 4.4630 -0.1900
6.7600 4.4763 -0.2047
6.7800 4.4897 -0.2061
6.8000 4.5030 -0.1928
6.8200 4.5164 -0.2072
6.8400 4.5297 -0.2058
6.8600 4.5430 -0.1974
6.8800 4.5564 -0.2063
6.9000 4.5697 -0.2085
6.9200 4.5831 -0.2050
6.9400 4.5964 -0.2124
6.9600 4.6097 -0.2083
6.9800 4.6230 -0.2103
7.0000 4.6364 -0.2159
7.0200 4.6497 -0.2128
7.0400 4.6630 -0.2132
7.0600 4.6763 -0.2120
7.0800 4.6896 -0.2153
7.1000 4.7029 -0.2163
7.1200 4.7163 -0.2113
7.1400 4.7296 -0.2163
7.1600 4.7430 -0.2240
7.1800 4.7564 -0.2177
7.2000 4.7698 -0.2209
7.2200 4.7831 -0.2243
7.2400 4.7964 -0.2179
7.2600 4.8098 -0.2216
7.2800 4.8231 -0.2293
7.3000 4.8364 -0.2189
7.3200 4.8497 -0.2188
7.3400 4.8630 -0.2258
7.3600 4.8763 -0.2219
7.3800 4.8896 -0.2226
7.4000 4.9030 -0.2329
7.4200 4.9163 -0.2234
7.4400 4.9297 -0.2286
7.4600 4.9430 -0.2308
7.4800 4.9564 -0.2259
7.5000 4.9697 -0.2290
7.5200 4.9831 -0.2282
7.5400 4.9964 -0.2276
7.5600 5.0098 -0.2314
7.5800 5.0231 -0.2345
7.6000 5.0364 -0.2296
7.6200 5.0497 -0.2340
7.6400 5.0631 -0.2375
7.6600 5.0764 -0.2342
7.6800 5.0897 -0.2316
7.7000 5.1030 -0.2413
7.7200 5.1163 -0.2352
7.7400 5.1297 -0.2367
7.7600 5.1430 -0.2391
7.7800 5.1563 -0.2368
7.8000 5.1696 -0.2389
7.8200 5.1830 -0.2487
7.8400 5.1963 -0.2403
7.8600 5.2097 -0.2428
7.8800 5.2230 -0.2513
7.9000 5.2364 -0.2435
7.9200 5.2497 -0.2483
7.9400 5.2631 -0.2519
7.9600 5.2764 -0.2391
7.9800 5.2897 -0.2513
8.0000 5.3031 -0.2544
8.0200 5.3164 -0.2452
8.0400 5.3297 -0.2556
8.0600 5.3430 -0.2558
8.0800 5.3564 -0.2485
8.1000 5.3697 -0.2618
8.1200 5.3830 -0.2576
8.1400 5.3963 -0.2500
8.1600 5.4096 -0.2641
8.1800 5.4230 -0.2562
8.2000 5.4363 -0.2558
8.2200 5.4497 -0.2622
8.2400 5.4630 -0.2603
8.2600 5.4764 -0.2597
8.2800 5.4898 -0.2676
8.3000 5.5031 -0.2640
8.3200 5.5164 -0.2656
8.3400 5.5297 -0.2661
8.3600 5.5431 -0.2613
8.3800 5.5564 -0.2651
8.4000 5.5697 -0.2639
8.4200 5.5830 -0.2619
8.4400 5.5964 -0.2730
8.4600 5.6097 -0.2618
8.4800 5.6230 -0.2640
8.5000 5.6363 -0.2735
8.5200 5.6496 -0.2662
8.5400 5.6630 -0.2701
8.5600 5.6763 -0.2757
8.5800 5.6897 -0.2656
8.6000 5.7030 -0.2715
8.6200 5.7164 -0.2783
8.6400 5.7297 -0.2676
8.6600 5.7430 -0.2733
8.6800 5.7564 -0.2788
8.7000 5.7697 -0.2711
8.7200 5.7831 -0.2762
8.7400 5.7964 -0.2837
8.7600 5.8097 -0.2720
8.7800 5.8230 -0.2816
8.8000 5.8364 -0.2805
8.8200 5.8497 -0.2782
8.8400 5.8630 -0.2843
8.8600 5.8763 -0.2836
8.8800 5.8896 -0.2747
8.9000 5.9030 -0.2864
8.9200 5.9163 -0.2850
8.9400 5.9297 -0.2864
8.9600 5.9430 -0.2855
8.9800 5.9564 -0.2898
9.0000 5.9698 -0.2893
9.0200 5.9831 -0.2892
9.0400 5.9964 -0.2919
9.0600 6.0097 -0.2943
9.0800 6.0231 -0.2941
9.1000 6.0364 -0.2935
9.1200 6.0497 -0.2966
9.1400 6.0630 -0.2933
9.1600 6.0763 -0.3002
9.1800 6.0897 -0.2978
9.2000 6.1030 -0.2942
9.2200 6.1163 -0.3020
9.2400 6.1296 -0.2992
9.2600 6.1430 -0.2981
9.2800 6.1563 -0.3092
9.3000 6.1696 -0.2979
9.3200 6.1830 -0.2984
9.3400 6.1964 -0.3103
9.3600 6.2098 -0.3046
9.3800 6.2231 -0.3012
9.4000 6.2364 -0.3164
9.4200 6.2497 -0.3016
9.4400 6.2631 -0.3055
9.4600 6.2764 -0.3195
9.4800 6.2897 -0.3075
9.5000 6.3030 -0.3082
9.5200 6.3163 -0.3231
9.5400 6.3296 -0.3050
9.5600 6.3430 -0.3141
9.5800 6.3563 -0.3208
9.6000 6.3696 -0.3103
9.6200 6.3830 -0.3140
9.6400 6.3964 -0.3226
9.6600 6.4097 -0.3120
9.6800 6.4230 -0.3182
9.7000 6.4364 -0.3278
9.7200 6.4498 -0.3138
9.7400 6.4631 -0.3248
9.7600 6.4764 -0.3245
9.7800 6.4897 -0.3162
9.8000 6.5031 -0.3229
9.8200 6.5164 -0.3265
9.8400 6.5297 -0.3167
9.8600 6.5430 -0.3255
9.8800 6.5564 -0.3301
9.9000 6.5697 -0.3201
9.9200 6.5830 -0.3255
9.9400 6.5963 -0.3271
9.9600 6.6096 -0.3213
9.9800 6.6230 -0.3272
10.0000 6.6363 -0.3294
10.0200 6.6496 -0.3239
10.0400 6.6630 -0.3191
10.0600 6.6763 -0.3362
10.0800 6.6897 -0.3246
10.1000 6.7031 -0.3233
10.1200 6.7164 -0.3294
10.1400 6.7297 -0.3243
10.1600 6.7431 -0.3212
10.1800 6.7564 -0.3357
10.2000 6.7697 -0.3287
10.2200 6.7830 -0.3185
10.2400 6.7964 -0.3312
10.2600 6.8097 -0.3268
10.2800 6.8230 -0.3205
10.3000 6.8363 -0.3367
10.3200 6.8496 -0.3255
10.3400 6.8630 -0.3195
10.3600 6.8763 -0.3389
10.3800 6.8897 -0.3269
10.4000 6.9030 -0.3303
10.4200 6.9164 -0.3371
10.4400 6.9297 -0.3230
10.4600 6.9431 -0.3250
10.4800 6.9564 -0.3405
10.5000 6.9697 -0.3258
10.5200 6.9831 -0.3344
10.5400 6.9964 -0.3374
10.5600 7.0097 -0.3284
10.5800 7.0230 -0.3343
10.6000 7.0363 -0.3413
10.6200 7.0497 -0.3307
10.6400 7.0630 -0.3378
10.6600 7.0763 -0.3414
10.6800 7.0897 -0.3292
10.7000 7.1030 -0.3389
10.7200 7.1164 -0.3493
10.7400 7.1297 -0.3356
10.7600 7.1430 -0.3428
10.7800 7.1563 -0.3441
10.8000 7.1697 -0.3377
10.8200 7.1831 -0.3468
10.8400 7.1964 -0.3479
10.8600 7.2097 -0.3419
10.8800 7.2231 -0.3442
10.9000 7.2364 -0.3489
10.9200 7.2497 -0.3374
10.9400 7.2630 -0.3487
10.9600 7.2763 -0.3493
10.9800 7.2897 -0.3446
11.0000 7.3030 -0.3522
11.0200 7.3163 -0.3514
11.0400 7.3296 -0.3454
11.0600 7.3430 -0.3549
11.0800 7.3563 -0.3601
11.1000 7.3697 -0.3477
11.1200 7.3830 -0.3534
11.1400 7.3964 -0.3631
11.1600 7.4098 -0.3479
11.1800 7.4231 -0.3605
11.2000 7.4364 -0.3644
11.2200 7.4497 -0.3558
11.2400 7.4631 -0.3668
11.2600 7.4764 -0.3644
11.2800 7.4897 -0.3586
11.3000 7.5030 -0.3690
11.3200 7.5163 -0.3693
11.3400 7.5297 -0.3550
11.3600 7.5430 -0.3725
11.3800 7.5563 -0.3725
11.4000 7.5697 -0.3567
11.4200 7.5830 -0.3806
11.4400 7.5963 -0.3730
11.4600 7.6096 -0.3652
11.4800 7.6230 -0.3851
11.5000 7.6364 -0.3720
11.5200 7.6497 -0.3745
11.5400 7.6631 -0.3808
11.5600 7.6764 -0.3747
11.5800 7.6897 -0.3707
11.6000 7.7031 -0.3852
11.6200 7.7164 -0.3767
11.6400 7.7297 -0.3769
11.6600 7.7430 -0.3872
11.6800 7.7563 -0.3796
11.7000 7.7697 -0.3818
11.7200 7.7830 -0.3871
11.7400 7.7963 -0.3804
11.7600 7.8096 -0.3860
11.7800 7.8230 -0.3841
11.8000 7.8363 -0.3785
11.8200 7.8497 -0.3856
11.8400 7.8630 -0.3863
11.8600 7.8763 -0.3855
11.8800 7.8897 -0.3872
11.9000 7.9030 -0.3845
11.9200 7.9163 -0.3884
11.9400 7.9297 -0.3873
11.9600 7.9430 -0.3841
11.9800 7.9564 -0.3943
12.0000 7.9697 -0.3832
12.0200 7.9830 -0.3841
12.0400 7.9964 -0.3856
12.0600 8.0097 -0.3873
12.0800 8.0230 -0.3910
12.1000 8.0363 -0.3886
12.1200 8.0496 -0.3855
12.1400 8.0629 -0.3887
12.1600 8.0763 -0.3953
12.1800 8.0896 -0.3905
12.2000 8.1030 -0.3835
12.2200 8.1163 -0.3936
12.2400 8.1298 -0.3852
12.2600 8.1431 -0.3898
12.2800 8.1564 -0.3944
12.3000 8.1698 -0.3889
12.3200 8.1831 -0.3943
12.3400 8.1964 -0.3928
12.3600 8.2097 -0.3893
12.3800 8.2230 -0.3964
12.4000 8.2363 -0.3922
12.4200 8.2497 -0.3833
12.4400 8.2630 -0.3972
12.4600 8.2763 -0.3939
12.4800 8.2896 -0.3862
12.5000 8.3029 -0.3980
12.5200 8.3163 -0.3990
12.5400 8.3297 -0.3883
12.5600 8.3430 -0.4008
12.5800 8.3564 -0.3985
12.6000 8.3697 -0.3909
12.6200 8.3831 -0.4005
12.6400 8.3964 -0.3991
12.6600 8.4097 -0.3890
12.6800 8.4231 -0.4079
12.7000 8.4364 -0.3962
12.7200 8.4497 -0.3937
12.7400 8.4630 -0.4047
12.7600 8.4763 -0.4029
12.7800 8.4897 -0.4020
12.8000 8.5030 -0.4094
12.8200 8.5163 -0.4025
12.8400 8.5296 -0.4070
12.8600 8.5430 -0.4052
12.8800 8.5564 -0.4044
12.9000 8.5697 -0.4127
12.9200 8.5830 -0.4025
12.9400 8.5964 -0.4039
12.9600 8.6097 -0.4134
12.9800 8.6231 -0.4066
13.0000 8.6364 -0.4138
13.0200 8.6497 -0.4151
13.0400 8.6631 -0.4007
13.0600 8.6764 -0.4185
13.0800 8.6897 -0.4146
13.1000 8.7031 -0.4029
13.1200 8.7164 -0.4209
13.1400 8.7297 -0.4159
13.1600 8.7430 -0.4021
13.1800 8.7563 -0.4227
13.2000 8.7696 -0.4115
13.2200 8.7830 -0.4123
13.2400 8.7963 -0.4292
13.2600 8.8097 -0.4120
13.2800 8.8230 -0.4124
13.3000 8.8364 -0.4330
13.3200 8.8498 -0.4098
13.3400 8.8631 -0.4158
13.3600 8.8764 -0.4258
13.3800 8.8897 -0.4166
13.4000 8.9031 -0.4240
13.4200 8.9164 -0.4295
13.4400 8.9297 -0.4224
13.4600 8.9430 -0.4230
13.4800 8.9563 -0.4258
13.5000 8.9697 -0.4261
13.5200 8.9830 -0.4299
13.5400 8.9963 -0.4276
13.5600 9.0097 -0.4202
13.5800 9.0230 -0.4241
13.6000 9.0363 -0.4273
13.6200 9.0496 -0.4269
13.6400 9.0630 -0.4328
13.6600 9.0763 -0.4280
13.6800 9.0897 -0.4309
13.7000 9.1031 -0.4301
13.7200 9.1164 -0.4321
13.7400 9.1297 -0.4261
13.7600 9.1431 -0.4349
13.7800 9.1564 -0.4275
13.8000 9.1698 -0.4327
13.8200 9.1830 -0.4319
13.8400 9.1963 -0.4294
13.8600 9.2097 -0.4347
13.8800 9.2230 -0.4379
13.9000 9.2363 -0.4283
13.9200 9.2497 -0.4340
13.9400 9.2630 -0.4319
13.9600 9.2763 -0.4335
13.9800 9.2897 -0.4387
14.0000 9.3030 -0.4338
14.0200 9.3163 -0.4338
14.0400 9.3297 -0.4421
14.0600 9.3431 -0.4382
14.0800 9.3564 -0.4387
14.1000 9.3697 -0.4446
14.1200 9.3830 -0.4368
14.1400 9.3964 -0.4444
14.1600 9.4097 -0.4421
14.1800 9.4230 -0.4440
14.2000 9.4364 -0.4440
14.2200 9.4497 -0.4436
14.2400 9.4631 -0.4412
14.2600 9.4763 -0.4499
14.2800 9.4896 -0.4413
14.3000 9.5029 -0.4484
14.3200 9.5163 -0.4485
14.3400 9.5296 -0.4457
14.3600 9.5430 -0.4503
14.3800 9.5563 -0.4563
14.4000 9.5697 -0.4419
14.4200 9.5831 -0.4559
14.4400 9.5964 -0.4569
14.4600 9.6098 -0.4413
14.4800 9.6231 -0.4572
14.5000 9.6364 -0.4538
14.5200 9.6497 -0.4484
14.5400 9.6630 -0.4629
14.5600 9.6763 -0.4511
14.5800 9.6896 -0.4492
14.6000 9.7030 -0.4688
14.6200 9.7163 -0.4478
14.6400 9.7296 -0.4479
14.6600 9.7430 -0.4715
14.6800 9.7564 -0.4572
14.7000 9.7697 -0.4515
14.7200 9.7830 -0.4715
14.7400 9.7964 -0.4548
14.7600 9.8097 -0.4595
14.7800 9.8231 -0.4727
14.8000 9.8364 -0.4605
14.8200 9.8497 -0.4592
14.8400 9.8631 -0.4753
14.8600 9.8764 -0.4551
14.8800 9.8897 -0.4687
14.9000 9.9030 -0.4758
14.9200 9.9163 -0.4576
14.9400 9.9297 -0.4670
14.9600 9.9430 -0.4750
14.9800 9.9563 -0.4601
15.0000 9.9696 -0.4738
15.0200 9.9830 -0.4754
15.0400 9.9963 -0.4601
15.0600 10.0097 -0.4667
15.0800 10.0230 -0.4763
15.1000 10.0364 -0.4659
15.1200 10.0497 -0.4727
15.1400 10.0631 -0.4728
15.1600 10.0764 -0.4647
15.1800 10.0897 -0.4729
15.2000 10.1030 -0.4750
15.2200 10.1164 -0.4735
15.2400 10.1298 -0.4698
15.2600 10.1430 -0.4746
15.2800 10.1563 -0.4704
15.3000 10.1697 -0.4698
15.3200 10.1830 -0.4744
15.3400 10.1963 -0.4769
15.3600 10.2096 -0.4713
15.3800 10.2229 -0.4703
15.4000 10.2363 -0.4723
15.4200 10.2497 -0.4799
15.4400 10.2630 -0.4746
15.4600 10.2763 -0.4736
15.4800 10.2897 -0.4716
15.5000 10.3031 -0.4744
15.5200 10.3164 -0.4737
15.5400 10.3298 -0.4786
15.5600 10.3431 -0.4754
15.5800 10.3564 -0.4735
15.6000 10.3698 -0.4750
15.6200 10.3830 -0.4740
15.6400 10.3963 -0.4758
15.6600 10.4097 -0.4785
15.6800 10.4230 -0.4762
15.7000 10.4363 -0.4710
15.7200 10.4497 -0.4745
15.7400 10.4630 -0.4800
15.7600 10.4763 -0.4766
15.7800 10.4897 -0.4734
15.8000 10.5030 -0.4881
15.8200 10.5163 -0.4704
15.8400 10.5297 -0.4743
15.8600 10.5430 -0.4873
15.8800 10.5564 -0.4750
15.9000 10.5697 -0.4771
15.9200 10.5830 -0.4865
15.9400 10.5964 -0.4737
15.9600 10.6098 -0.4838
15.9800 10.6231 -0.4859
16.0000 10.6364 -0.4712
16.0200 10.6497 -0.4815
16.0400 10.6630 -0.4889
16.0600 10.6763 -0.4708
16.0800 10.6896 -0.4864
16.1000 10.7030 -0.4904
16.1200 10.7163 -0.4657
16.1400 10.7297 -0.4918
16.1600 10.7430 -0.4914
16.1800 10.7563 -0.4706
16.2000 10.7697 -0.4942
16.2200 10.7831 -0.4894
16.2400 10.7964 -0.4716
16.2600 10.8097 -0.4939
16.2800 10.8230 -0.4883
16.3000 10.8364 -0.4749
16.3200 10.8497 -0.4950
16.3400 10.8631 -0.4881
16.3600 10.8763 -0.4757
16.3800 10.8897 -0.4984
16.4000 10.9030 -0.4864
16.4200 10.9164 -0.4829
16.4400 10.9297 -0.4992
16.4600 10.9430 -0.4907
16.4800 10.9563 -0.4780
16.5000 10.9696 -0.5021
16.5200 10.9830 -0.4914
16.5400 10.9963 -0.4821
16.5600 11.0097 -0.5023
16.5800 11.0231 -0.4917
16.6000 11.0364 -0.4841
16.6200 11.0497 -0.5059
16.6400 11.0631 -0.4893
16.6600 11.0764 -0.4904
16.6800 11.0897 -0.5058
16.7000 11.1030 -0.4930
16.7200 11.1163 -0.4906
16.7400 11.1296 -0.5035
16.7600 11.1430 -0.4905
16.7800 11.1563 -0.4926
16.8000 11.1696 -0.5062
16.8200 11.1830 -0.4906
16.8400 11.1963 -0.4960
16.8600 11.2097 -0.5042
16.8800 11.2230 -0.4996
16.9000 11.2364 -0.4980
16.9200 11.2497 -0.4997
16.9400 11.2631 -0.4965
16.9600 11.2764 -0.4990
16.9800 11.2897 -0.5037
17.0000 11.3030 -0.5029
17.0200 11.3164 -0.5010
17.0400 11.3297 -0.5073
