Raw Data
Time Displacement Force
(s) (mm) (N)
0.0000 0.0000 0.2038
0.0200 0.0001 0.2168
0.0400 0.0022 0.2817
0.0600 0.0101 0.2773
0.0800 0.0220 0.1869
0.1000 0.0345 0.1995
0.1200 0.0472 0.2385
0.1400 0.0607 0.1950
0.1600 0.0747 0.2082
0.1800 0.0889 0.2184
0.2000 0.1028 0.1850
0.2200 0.1163 0.2038
0.2400 0.1297 0.2156
0.2600 0.1430 0.1875
0.2800 0.1563 0.2072
0.3000 0.1697 0.2119
0.3200 0.1831 0.1868
0.3400 0.1964 0.2064
0.3600 0.2098 0.2046
0.3800 0.2231 0.1879
0.4000 0.2364 0.2008
0.4200 0.2498 0.1965
0.4400 0.2631 0.1897
0.4600 0.2764 0.1896
0.4800 0.2897 0.1916
0.5000 0.3031 0.1813
0.5200 0.3164 0.1814
0.5400 0.3297 0.1829
0.5600 0.3431 0.1733
0.5800 0.3564 0.1786
0.6000 0.3698 0.1771
0.6200 0.3831 0.1656
0.6400 0.3964 0.1726
0.6600 0.4098 0.1723
0.6800 0.4232 0.1614
0.7000 0.4365 0.1632
0.7200 0.4498 0.1686
0.7400 0.4631 0.1523
0.7600 0.4765 0.1625
0.7800 0.4898 0.1594
0.8000 0.5031 0.1490
0.8200 0.5164 0.1538
0.8400 0.5298 0.1485
0.8600 0.5431 0.1392
0.8800 0.5564 0.1511
0.9000 0.5697 0.1413
0.9200 0.5830 0.1389
0.9400 0.5964 0.1420
0.9600 0.6097 0.1318
0.9800 0.6231 0.1327
1.0000 0.6364 0.1388
1.0200 0.6498 0.1296
1.0400 0.6632 0.1280
1.0600 0.6765 0.1321
1.0800 0.6898 0.1263
1.1000 0.7031 0.1245
1.1200 0.7165 0.1265
1.1400 0.7298 0.1204
1.1600 0.7431 0.1218
1.1800 0.7564 0.1269
1.2000 0.7698 0.1165
1.2200 0.7831 0.1188
1.2400 0.7964 0.1204
1.2600 0.8097 0.1175
1.2800 0.8230 0.1137
1.3000 0.8364 0.1187
1.3200 0.8498 0.1131
1.3400 0.8631 0.1116
1.3600 0.8764 0.1179
1.3800 0.8898 0.1041
1.4000 0.9031 0.1060
1.4200 0.9165 0.1097
1.4400 0.9298 0.0957
1.4600 0.9431 0.1018
1.4800 0.9565 0.0958
1.5000 0.9698 0.0920
1.5200 0.9831 0.0941
1.5400 0.9964 0.0904
1.5600 1.0097 0.0883
1.5800 1.0231 0.0925
1.6000 1.0364 0.0876
1.6200 1.0497 0.0847
1.6400 1.0630 0.0848
1.6600 1.0764 0.0817
1.6800 1.0897 0.0817
1.7000 1.1031 0.0794
1.7200 1.1164 0.0775
1.7400 1.1298 0.0747
1.7600 1.1432 0.0743
1.7800 1.1565 0.0682
1.8000 1.1698 0.0742
1.8200 1.1831 0.0715
1.8400 1.1965 0.0679
1.8600 1.2098 0.0690
1.8800 1.2231 0.0619
1.9000 1.2364 0.0643
1.9200 1.2498 0.0665
1.9400 1.2631 0.0597
1.9600 1.2764 0.0615
1.9800 1.2897 0.0613
2.0000 1.3031 0.0626
2.0200 1.3164 0.0563
2.0400 1.3297 0.0570
2.0600 1.3431 0.0576
2.0800 1.3564 0.0539
2.1000 1.3698 0.0472
2.1200 1.3832 0.0516
2.1400 1.3965 0.0479
2.1600 1.4098 0.0433
2.1800 1.4231 0.0510
2.2000 1.4365 0.0452
2.2200 1.4498 0.0395
2.2400 1.4631 0.0454
2.2600 1.4764 0.0380
2.2800 1.4897 0.0380
2.3000 1.5031 0.0365
2.3200 1.5164 0.0371
2.3400 1.5297 0.0341
2.3600 1.5431 0.0385
2.3800 1.5564 0.0365
2.4000 1.5698 0.0261
2.4200 1.5831 0.0330
2.4400 1.5965 0.0279
2.4600 1.6098 0.0234
2.4800 1.6231 0.0293
2.5000 1.6365 0.0210
2.5200 1.6498 0.0253
2.5400 1.6631 0.0280
2.5600 1.6764 0.0186
2.5800 1.6898 0.0215
2.6000 1.7032 0.0193
2.6200 1.7165 0.0206
2.6400 1.7298 0.0170
2.6600 1.7432 0.0160
2.6800 1.7565 0.0111
2.7000 1.7698 0.0133
2.7200 1.7831 0.0130
2.7400 1.7964 0.0110
2.7600 1.8098 -0.0001
2.7800 1.8231 0.0070
2.8000 1.8364 0.0043
2.8200 1.8497 -0.0016
2.8400 1.8631 0.0051
2.8600 1.8765 0.0009
2.8800 1.8898 -0.0078
2.9000 1.9031 0.0068
2.9200 1.9165 -0.0012
2.9400 1.9298 -0.0091
2.9600 1.9431 0.0051
2.9800 1.9565 -0.0055
3.0000 1.9698 -0.0091
3.0200 1.9831 0.0022
3.0400 1.9965 -0.0115
3.0600 2.0098 -0.0133
3.0800 2.0231 0.0005
3.1000 2.0364 -0.0184
3.1200 2.0497 -0.0181
3.1400 2.0631 -0.0021
3.1600 2.0764 -0.0243
3.1800 2.0898 -0.0194
3.2000 2.1032 -0.0095
3.2200 2.1165 -0.0293
3.2400 2.1298 -0.0275
3.2600 2.1432 -0.0129
3.2800 2.1565 -0.0228
3.3000 2.1698 -0.0308
3.3200 2.1831 -0.0182
3.3400 2.1964 -0.0296
3.3600 2.2098 -0.0288
3.3800 2.2231 -0.0232
3.4000 2.2364 -0.0388
3.4200 2.2497 -0.0340
3.4400 2.2630 -0.0299
3.4600 2.2764 -0.0381
3.4800 2.2898 -0.0389
3.5000 2.3031 -0.0376
3.5200 2.3164 -0.0408
3.5400 2.3298 -0.0447
3.5600 2.3431 -0.0396
3.5800 2.3565 -0.0492
3.6000 2.3698 -0.0442
3.6200 2.3831 -0.0429
3.6400 2.3965 -0.0534
3.6600 2.4099 -0.0512
3.6800 2.4232 -0.0462
3.7000 2.4365 -0.0529
3.7200 2.4498 -0.0543
3.7400 2.4631 -0.0512
3.7600 2.4764 -0.0611
3.7800 2.4897 -0.0643
3.8000 2.5030 -0.0537
3.8200 2.5164 -0.0623
3.8400 2.5297 -0.0678
3.8600 2.5431 -0.0591
3.8800 2.5564 -0.0655
3.9000 2.5698 -0.0671
3.9200 2.5832 -0.0594
3.9400 2.5965 -0.0690
3.9600 2.6098 -0.0650
3.9800 2.6231 -0.0625
4.0000 2.6365 -0.0727
4.0200 2.6498 -0.0698
4.0400 2.6631 -0.0716
4.0600 2.6764 -0.0704
4.0800 2.6898 -0.0720
4.1000 2.7031 -0.0727
4.1200 2.7164 -0.0748
4.1400 2.7298 -0.0771
4.1600 2.7431 -0.0759
4.1800 2.7564 -0.0791
4.2000 2.7697 -0.0856
4.2200 2.7831 -0.0773
4.2400 2.7964 -0.0799
4.2600 2.8097 -0.0855
4.2800 2.8231 -0.0811
4.3000 2.8365 -0.0869
4.3200 2.8498 -0.0911
4.3400 2.8631 -0.0823
4.3600 2.8765 -0.0911
4.3800 2.8898 -0.0957
4.4000 2.9032 -0.0895
4.4200 2.9164 -0.0950
4.4400 2.9297 -0.0926
4.4600 2.9431 -0.0891
4.4800 2.9564 -0.0994
4.5000 2.9697 -0.0991
4.5200 2.9831 -0.0934
4.5400 2.9964 -0.1028
4.5600 3.0098 -0.1002
4.5800 3.0231 -0.0999
4.6000 3.0364 -0.1063
4.6200 3.0498 -0.1050
4.6400 3.0631 -0.0984
4.6600 3.0764 -0.1075
4.6800 3.0898 -0.1069
4.7000 3.1031 -0.1031
4.7200 3.1164 -0.1073
4.7400 3.1298 -0.1138
4.7600 3.1432 -0.1022
4.7800 3.1565 -0.1065
4.8000 3.1698 -0.1141
4.8200 3.1832 -0.1074
4.8400 3.1965 -0.1122
4.8600 3.2098 -0.1178
4.8800 3.2231 -0.1055
4.9000 3.2364 -0.1139
4.9200 3.2497 -0.1227
4.9400 3.2630 -0.1101
4.9600 3.2764 -0.1188
4.9800 3.2897 -0.1252
5.0000 3.3032 -0.1153
5.0200 3.3165 -0.1244
5.0400 3.3299 -0.1303
5.0600 3.3432 -0.1225
5.0800 3.3565 -0.1225
5.1000 3.3699 -0.1300
5.1200 3.3832 -0.1264
5.1400 3.3965 -0.1284
5.1600 3.4098 -0.1319
5.1800 3.4231 -0.1312
5.2000 3.4364 -0.1322
5.2200 3.4497 -0.1317
5.2400 3.4630 -0.1377
5.2600 3.4764 -0.1371
5.2800 3.4897 -0.1387
5.3000 3.5031 -0.1369
5.3200 3.5164 -0.1367
5.3400 3.5298 -0.1432
5.3600 3.5431 -0.1477
5.3800 3.5565 -0.1404
5.4000 3.5698 -0.1503
5.4200 3.5832 -0.1466
5.4400 3.5965 -0.1437
5.4600 3.6098 -0.1529
5.4800 3.6232 -0.1529
5.5000 3.6365 -0.1473
5.5200 3.6498 -0.1567
5.5400 3.6631 -0.1498
5.5600 3.6764 -0.1529
5.5800 3.6897 -0.1592
5.6000 3.7031 -0.1522
5.6200 3.7164 -0.1512
5.6400 3.7297 -0.1626
5.6600 3.7431 -0.1542
5.6800 3.7564 -0.1561
5.7000 3.7698 -0.1660
5.7200 3.7831 -0.1563
5.7400 3.7965 -0.1643
5.7600 3.8098 -0.1673
5.7800 3.8231 -0.1517
5.8000 3.8365 -0.1667
5.8200 3.8498 -0.1663
5.8400 3.8632 -0.1553
5.8600 3.8765 -0.1662
5.8800 3.8898 -0.1649
5.9000 3.9031 -0.1584
5.9200 3.9165 -0.1700
5.9400 3.9298 -0.1697
5.9600 3.9431 -0.1596
5.9800 3.9564 -0.1735
6.0000 3.9697 -0.1706
6.0200 3.9831 -0.1707
6.0400 3.9964 -0.1726
6.0600 4.0098 -0.1732
6.0800 4.0231 -0.1731
6.1000 4.0365 -0.1790
6.1200 4.0498 -0.1770
6.1400 4.0631 -0.1742
6.1600 4.0765 -0.1836
6.1800 4.0898 -0.1781
6.2000 4.1032 -0.1756
6.2200 4.1165 -0.1904
6.2400 4.1297 -0.1785
6.2600 4.1431 -0.1779
6.2800 4.1565 -0.1889
6.3000 4.1698 -0.1815
6.3200 4.1831 -0.1813
6.3400 4.1964 -0.1880
6.3600 4.2097 -0.1834
6.3800 4.2231 -0.1842
6.4000 4.2364 -0.1884
6.4200 4.2497 -0.1851
6.4400 4.2631 -0.1905
6.4600 4.2765 -0.1906
6.4800 4.2898 -0.1852
6.5000 4.3031 -0.1976
6.5200 4.3165 -0.1902
6.5400 4.3298 -0.1906
6.5600 4.3432 -0.2015
6.5800 4.3565 -0.1894
6.6000 4.3698 -0.1955
6.6200 4.3831 -0.2011
6.6400 4.3965 -0.1904
6.6600 4.4098 -0.2012
6.6800 4.4231 -0.2016
6.7000 4.4364 -0.1950
6.7200 4.4497 -0.2001
6.7400 4.4631 -0.2074
6.7600 4.4764 -0.2004
6.7800 4.4897 -0.2054
6.8000 4.5031 -0.2025
6.8200 4.5165 -0.2024
6.8400 4.5298 -0.2118
6.8600 4.5431 -0.2056
6.8800 4.5564 -0.2125
6.9000 4.5698 -0.2083
6.9200 4.5832 -0.2109
6.9400 4.5965 -0.2117
6.9600 4.6098 -0.2104
6.9800 4.6231 -0.2106
7.0000 4.6365 -0.2151
7.0200 4.6498 -0.2116
7.0400 4.6630 -0.2090
7.0600 4.6763 -0.2173
7.0800 4.6897 -0.2142
7.1000 4.7030 -0.2157
7.1200 4.7164 -0.2223
7.1400 4.7297 -0.2110
7.1600 4.7431 -0.2202
7.1800 4.7565 -0.2259
7.2000 4.7699 -0.2142
7.2200 4.7832 -0.2245
7.2400 4.7965 -0.2248
7.2600 4.8099 -0.2120
7.2800 4.8232 -0.2272
7.3000 4.8365 -0.2269
7.3200 4.8497 -0.2138
7.3400 4.8630 -0.2280
7.3600 4.8764 -0.2311
7.3800 4.8897 -0.2207
7.4000 4.9031 -0.2316
7.4200 4.9164 -0.2310
7.4400 4.9298 -0.2222
7.4600 4.9431 -0.2360
7.4800 4.9565 -0.2299
7.5000 4.9698 -0.2259
7.5200 4.9831 -0.2396
7.5400 4.9965 -0.2345
7.5600 5.0098 -0.2277
7.5800 5.0232 -0.2390
7.6000 5.0365 -0.2362
7.6200 5.0498 -0.2355
7.6400 5.0632 -0.2408
7.6600 5.0764 -0.2411
7.6800 5.0897 -0.2400
7.7000 5.1031 -0.2417
7.7200 5.1164 -0.2445
7.7400 5.1298 -0.2447
7.7600 5.1431 -0.2431
7.7800 5.1564 -0.2466
7.8000 5.1697 -0.2458
7.8200 5.1831 -0.2483
7.8400 5.1964 -0.2525
7.8600 5.2098 -0.2498
7.8800 5.2231 -0.2463
7.9000 5.2365 -0.2544
7.9200 5.2498 -0.2511
7.9400 5.2631 -0.2513
7.9600 5.2764 -0.2534
7.9800 5.2898 -0.2532
8.0000 5.3032 -0.2528
8.0200 5.3165 -0.2600
8.0400 5.3298 -0.2497
8.0600 5.3431 -0.2539
8.0800 5.3564 -0.2600
8.1000 5.3698 -0.2510
8.1200 5.3831 -0.2589
8.1400 5.3964 -0.2599
8.1600 5.4097 -0.2555
8.1800 5.4231 -0.2623
8.2000 5.4364 -0.2616
8.2200 5.4497 -0.2561
8.2400 5.4631 -0.2556
8.2600 5.4765 -0.2622
8.2800 5.4898 -0.2618
8.3000 5.5032 -0.2557
8.3200 5.5165 -0.2689
8.3400 5.5298 -0.2575
8.3600 5.5431 -0.2625
8.3800 5.5565 -0.2722
8.4000 5.5698 -0.2594
8.4200 5.5831 -0.2662
8.4400 5.5964 -0.2706
8.4600 5.6098 -0.2639
8.4800 5.6231 -0.2665
8.5000 5.6364 -0.2709
8.5200 5.6497 -0.2643
8.5400 5.6631 -0.2657
8.5600 5.6764 -0.2761
8.5800 5.6898 -0.2657
8.6000 5.7031 -0.2685
8.6200 5.7165 -0.2772
8.6400 5.7298 -0.2750
8.6600 5.7431 -0.2691
8.6800 5.7565 -0.2762
8.7000 5.7698 -0.2775
8.7200 5.7832 -0.2694
8.7400 5.7965 -0.2796
8.7600 5.8098 -0.2779
8.7800 5.8231 -0.2700
8.8000 5.8364 -0.2866
8.8200 5.8498 -0.2773
8.8400 5.8631 -0.2699
8.8600 5.8764 -0.2906
8.8800 5.8897 -0.2797
8.9000 5.9031 -0.2735
8.9200 5.9164 -0.2905
8.9400 5.9298 -0.2819
8.9600 5.9431 -0.2768
8.9800 5.9565 -0.2956
9.0000 5.9699 -0.2838
9.0200 5.9832 -0.2841
9.0400 5.9965 -0.2968
9.0600 6.0098 -0.2862
9.0800 6.0232 -0.2893
9.1000 6.0365 -0.3043
9.1200 6.0498 -0.2921
9.1400 6.0631 -0.2897
9.1600 6.0764 -0.3024
9.1800 6.0898 -0.2972
9.2000 6.1031 -0.2913
9.2200 6.1164 -0.3033
9.2400 6.1297 -0.3011
9.2600 6.1431 -0.2937
9.2800 6.1564 -0.3084
9.3000 6.1697 -0.3035
9.3200 6.1831 -0.2958
9.3400 6.1965 -0.3062
9.3600 6.2099 -0.3029
9.3800 6.2232 -0.2951
9.4000 6.2365 -0.3113
9.4200 6.2498 -0.3047
9.4400 6.2632 -0.3003
9.4600 6.2764 -0.3132
9.4800 6.2897 -0.3101
9.5000 6.3030 -0.3038
9.5200 6.3164 -0.3149
9.5400 6.3297 -0.3103
9.5600 6.3431 -0.3075
9.5800 6.3564 -0.3124
9.6000 6.3697 -0.3080
9.6200 6.3831 -0.3132
9.6400 6.3965 -0.3144
9.6600 6.4098 -0.3151
9.6800 6.4231 -0.3151
9.7000 6.4365 -0.3152
9.7200 6.4498 -0.3204
9.7400 6.4631 -0.3145
9.7600 6.4764 -0.3175
9.7800 6.4898 -0.3237
9.8000 6.5031 -0.3153
9.8200 6.5165 -0.3200
9.8400 6.5298 -0.3313
9.8600 6.5431 -0.3130
9.8800 6.5565 -0.3235
9.9000 6.5698 -0.3278
9.9200 6.5831 -0.3187
9.9400 6.5964 -0.3266
9.9600 6.6097 -0.3248
9.9800 6.6231 -0.3143
10.0000 6.6364 -0.3308
10.0200 6.6497 -0.3320
10.0400 6.6631 -0.3154
10.0600 6.6764 -0.3351
10.0800 6.6898 -0.3276
10.1000 6.7031 -0.3159
10.1200 6.7165 -0.3389
10.1400 6.7298 -0.3240
10.1600 6.7432 -0.3213
10.1800 6.7565 -0.3421
10.2000 6.7698 -0.3194
10.2200 6.7831 -0.3255
10.2400 6.7965 -0.3409
10.2600 6.8098 -0.3212
10.2800 6.8231 -0.3252
10.3000 6.8364 -0.3415
10.3200 6.8497 -0.3197
10.3400 6.8631 -0.3302
10.3600 6.8764 -0.3355
10.3800 6.8897 -0.3230
10.4000 6.9031 -0.3295
10.4200 6.9164 -0.3343
10.4400 6.9298 -0.3285
10.4600 6.9432 -0.3331
10.4800 6.9565 -0.3342
10.5000 6.9698 -0.3289
10.5200 6.9832 -0.3360
10.5400 6.9965 -0.3353
10.5600 7.0098 -0.3332
10.5800 7.0231 -0.3351
10.6000 7.0364 -0.3311
10.6200 7.0498 -0.3414
10.6400 7.0631 -0.3366
10.6600 7.0764 -0.3350
10.6800 7.0897 -0.3444
10.7000 7.1031 -0.3374
10.7200 7.1164 -0.3411
10.7400 7.1298 -0.3462
10.7600 7.1431 -0.3403
10.7800 7.1564 -0.3431
10.8000 7.1698 -0.3507
10.8200 7.1831 -0.3401
10.8400 7.1965 -0.3458
10.8600 7.2098 -0.3511
10.8800 7.2232 -0.3446
10.9000 7.2365 -0.3475
10.9200 7.2498 -0.3577
10.9400 7.2631 -0.3426
10.9600 7.2764 -0.3505
10.9800 7.2898 -0.3603
11.0000 7.3031 -0.3511
11.0200 7.3164 -0.3542
11.0400 7.3297 -0.3576
11.0600 7.3430 -0.3507
11.0800 7.3564 -0.3546
11.1000 7.3697 -0.3604
11.1200 7.3831 -0.3552
11.1400 7.3965 -0.3576
11.1600 7.4099 -0.3605
11.1800 7.4232 -0.3582
11.2000 7.4365 -0.3594
11.2200 7.4498 -0.3641
11.2400 7.4632 -0.3625
11.2600 7.4765 -0.3561
11.2800 7.4898 -0.3658
11.3000 7.5031 -0.3654
11.3200 7.5164 -0.3617
11.3400 7.5298 -0.3649
11.3600 7.5431 -0.3673
11.3800 7.5564 -0.3607
11.4000 7.5697 -0.3679
11.4200 7.5831 -0.3744
11.4400 7.5964 -0.3619
11.4600 7.6097 -0.3722
11.4800 7.6231 -0.3740
11.5000 7.6364 -0.3579
11.5200 7.6498 -0.3768
11.5400 7.6632 -0.3774
11.5600 7.6765 -0.3633
11.5800 7.6898 -0.3772
11.6000 7.7032 -0.3752
11.6200 7.7165 -0.3683
11.6400 7.7298 -0.3773
11.6600 7.7431 -0.3787
11.6800 7.7564 -0.3670
11.7000 7.7698 -0.3791
11.7200 7.7831 -0.3805
11.7400 7.7964 -0.3683
11.7600 7.8097 -0.3848
11.7800 7.8231 -0.3767
11.8000 7.8364 -0.3713
11.8200 7.8498 -0.3849
11.8400 7.8631 -0.3805
11.8600 7.8764 -0.3713
11.8800 7.8898 -0.3885
11.9000 7.9031 -0.3810
11.9200 7.9164 -0.3690
11.9400 7.9297 -0.3874
11.9600 7.9431 -0.3818
11.9800 7.9565 -0.3716
12.0000 7.9698 -0.3855
12.0200 7.9831 -0.3832
12.0400 7.9965 -0.3693
12.0600 8.0098 -0.3881
12.0800 8.0231 -0.3871
12.1000 8.0364 -0.3698
12.1200 8.0497 -0.3893
12.1400 8.0630 -0.3853
12.1600 8.0764 -0.3734
12.1800 8.0897 -0.3911
12.2000 8.1030 -0.3819
12.2200 8.1164 -0.3734
12.2400 8.1298 -0.3939
12.2600 8.1432 -0.3826
12.2800 8.1565 -0.3802
12.3000 8.1698 -0.3925
12.3200 8.1832 -0.3830
12.3400 8.1965 -0.3766
12.3600 8.2098 -0.3877
12.3800 8.2231 -0.3853
12.4000 8.2364 -0.3793
12.4200 8.2498 -0.3889
12.4400 8.2631 -0.3900
12.4600 8.2764 -0.3807
12.4800 8.2897 -0.3925
12.5000 8.3030 -0.3919
12.5200 8.3164 -0.3866
12.5400 8.3297 -0.3897
12.5600 8.3431 -0.3883
12.5800 8.3565 -0.3854
12.6000 8.3698 -0.3936
12.6200 8.3832 -0.3955
12.6400 8.3965 -0.3911
12.6600 8.4098 -0.3928
12.6800 8.4232 -0.3994
12.7000 8.4365 -0.3882
12.7200 8.4498 -0.3994
12.7400 8.4631 -0.3987
12.7600 8.4764 -0.3924
12.7800 8.4898 -0.4041
12.8000 8.5031 -0.4002
12.8200 8.5164 -0.3977
12.8400 8.5297 -0.4024
12.8600 8.5430 -0.4057
12.8800 8.5564 -0.4001
12.9000 8.5698 -0.4035
12.9200 8.5831 -0.4050
12.9400 8.5964 -0.4040
12.9600 8.6098 -0.4074
12.9800 8.6232 -0.4090
13.0000 8.6365 -0.4080
13.0200 8.6498 -0.4043
13.0400 8.6632 -0.4127
13.0600 8.6765 -0.4132
13.0800 8.6898 -0.4049
13.1000 8.7031 -0.4178
13.1200 8.7165 -0.4077
13.1400 8.7298 -0.4058
13.1600 8.7431 -0.4207
13.1800 8.7564 -0.4108
13.2000 8.7697 -0.4070
13.2200 8.7830 -0.4214
13.2400 8.7964 -0.4122
13.2600 8.8098 -0.4111
13.2800 8.8231 -0.4257
13.3000 8.8365 -0.4133
13.3200 8.8498 -0.4115
13.3400 8.8632 -0.4297
13.3600 8.8765 -0.4099
13.3800 8.8898 -0.4171
13.4000 8.9031 -0.4293
13.4200 8.9165 -0.4166
13.4400 8.9298 -0.4182
13.4600 8.9431 -0.4292
13.4800 8.9564 -0.4158
13.5000 8.9697 -0.4180
13.5200 8.9831 -0.4368
13.5400 8.9964 -0.4171
13.5600 9.0098 -0.4204
13.5800 9.0231 -0.4428
13.6000 9.0364 -0.4186
13.6200 9.0497 -0.4279
13.6400 9.0630 -0.4414
13.6600 9.0764 -0.4227
13.6800 9.0898 -0.4294
13.7000 9.1032 -0.4462
13.7200 9.1165 -0.4236
13.7400 9.1298 -0.4270
13.7600 9.1432 -0.4514
13.7800 9.1565 -0.4252
13.8000 9.1699 -0.4312
13.8200 9.1831 -0.4508
13.8400 9.1964 -0.4280
13.8600 9.2098 -0.4323
13.8800 9.2231 -0.4506
13.9000 9.2364 -0.4292
13.9200 9.2497 -0.4395
13.9400 9.2631 -0.4534
13.9600 9.2764 -0.4285
13.9800 9.2898 -0.4397
14.0000 9.3031 -0.4546
14.0200 9.3164 -0.4306
14.0400 9.3298 -0.4458
14.0600 9.3431 -0.4520
14.0800 9.3565 -0.4322
14.1000 9.3698 -0.4529
14.1200 9.3831 -0.4447
14.1400 9.3965 -0.4364
14.1600 9.4098 -0.4554
14.1800 9.4231 -0.4461
14.2000 9.4364 -0.4344
14.2200 9.4498 -0.4569
14.2400 9.4631 -0.4485
14.2600 9.4764 -0.4415
14.2800 9.4897 -0.4571
14.3000 9.5030 -0.4461
14.3200 9.5164 -0.4415
14.3400 9.5297 -0.4584
14.3600 9.5430 -0.4487
14.3800 9.5564 -0.4430
14.4000 9.5698 -0.4582
14.4200 9.5832 -0.4520
14.4400 9.5965 -0.4464
14.4600 9.6098 -0.4586
14.4800 9.6232 -0.4518
14.5000 9.6365 -0.4532
14.5200 9.6498 -0.4571
14.5400 9.6631 -0.4517
14.5600 9.6764 -0.4537
14.5800 9.6897 -0.4547
14.6000 9.7031 -0.4558
14.6200 9.7164 -0.4589
14.6400 9.7297 -0.4567
14.6600 9.7431 -0.4621
14.6800 9.7564 -0.4578
14.7000 9.7698 -0.4598
14.7200 9.7831 -0.4633
14.7400 9.7965 -0.4597
14.7600 9.8098 -0.4598
14.7800 9.8232 -0.4660
14.8000 9.8365 -0.4610
14.8200 9.8498 -0.4578
14.8400 9.8631 -0.4705
14.8600 9.8765 -0.4600
14.8800 9.8898 -0.4630
14.9000 9.9031 -0.4677
14.9200 9.9164 -0.4584
14.9400 9.9297 -0.4677
14.9600 9.9431 -0.4632
14.9800 9.9564 -0.4606
15.0000 9.9697 -0.4685
15.0200 9.9830 -0.4638
15.0400 9.9964 -0.4673
15.0600 10.0098 -0.4673
15.0800 10.0231 -0.4685
15.1000 10.0364 -0.4664
15.1200 10.0498 -0.4727
15.1400 10.0632 -0.4648
15.1600 10.0765 -0.4753
15.1800 10.0898 -0.4677
15.2000 10.1031 -0.4663
15.2200 10.1165 -0.4764
15.2400 10.1298 -0.4662
15.2600 10.1431 -0.4681
15.2800 10.1564 -0.4753
15.3000 10.1698 -0.4665
15.3200 10.1831 -0.4716
15.3400 10.1964 -0.4775
15.3600 10.2097 -0.4652
15.3800 10.2230 -0.4753
15.4000 10.2364 -0.4789
15.4200 10.2497 -0.4612
15.4400 10.2631 -0.4767
15.4600 10.2764 -0.4815
15.4800 10.2898 -0.4623
15.5000 10.3032 -0.4789
15.5200 10.3165 -0.4784
15.5400 10.3298 -0.4692
15.5600 10.3432 -0.4798
15.5800 10.3565 -0.4784
15.6000 10.3698 -0.4716
15.6200 10.3831 -0.4776
15.6400 10.3964 -0.4738
15.6600 10.4097 -0.4732
15.6800 10.4231 -0.4827
15.7000 10.4364 -0.4782
15.7200 10.4497 -0.4760
15.7400 10.4631 -0.4818
15.7600 10.4764 -0.4741
15.7800 10.4898 -0.4788
15.8000 10.5031 -0.4755
15.8200 10.5164 -0.4765
15.8400 10.5297 -0.4834
15.8600 10.5431 -0.4765
15.8800 10.5565 -0.4762
15.9000 10.5698 -0.4901
15.9200 10.5831 -0.4757
15.9400 10.5965 -0.4837
15.9600 10.6098 -0.4867
15.9800 10.6232 -0.4759
16.0000 10.6365 -0.4852
16.0200 10.6498 -0.4859
16.0400 10.6631 -0.4751
16.0600 10.6764 -0.4895
16.0800 10.6897 -0.4862
16.1000 10.7030 -0.4762
16.1200 10.7164 -0.4956
16.1400 10.7297 -0.4814
16.1600 10.7431 -0.4790
16.1800 10.7564 -0.4964
16.2000 10.7698 -0.4767
16.2200 10.7832 -0.4835
16.2400 10.7965 -0.4979
16.2600 10.8098 -0.4766
16.2800 10.8231 -0.4895
16.3000 10.8365 -0.4972
16.3200 10.8498 -0.4775
16.3400 10.8631 -0.4896
16.3600 10.8764 -0.4954
16.3800 10.8898 -0.4752
16.4000 10.9031 -0.4951
16.4200 10.9164 -0.4952
16.4400 10.9297 -0.4798
16.4600 10.9431 -0.4915
16.4800 10.9564 -0.4929
16.5000 10.9697 -0.4861
16.5200 10.9831 -0.4908
16.5400 10.9964 -0.4968
16.5600 11.0098 -0.4925
16.5800 11.0232 -0.4897
16.6000 11.0365 -0.4957
16.6200 11.0498 -0.4935
16.6400 11.0632 -0.4906
16.6600 11.0765 -0.4977
16.6800 11.0898 -0.4958
16.7000 11.1031 -0.4888
16.7200 11.1164 -0.4964
16.7400 11.1297 -0.4945
16.7600 11.1431 -0.4869
16.7800 11.1564 -0.5017
16.8000 11.1697 -0.4953
16.8200 11.1831 -0.4843
16.8400 11.1964 -0.5053
16.8600 11.2098 -0.4923
16.8800 11.2231 -0.4916
16.9000 11.2365 -0.5074
16.9200 11.2498 -0.4919
16.9400 11.2631 -0.4957
16.9600 11.2765 -0.5077
16.9800 11.2898 -0.4954
17.0000 11.3031 -0.4890
17.0200 11.3164 -0.5130
17.0400 11.3298 -0.5043
17.0600 11.3432 -0.4917
