Raw Data
Time Displacement Force
(s) (mm) (N)
0.0000 0.0001 -0.1100
0.0200 0.0001 -0.1116
0.0400 0.0009 -0.0733
0.0600 0.0042 -0.0668
0.0800 0.0097 -0.1089
0.1000 0.0154 -0.1157
0.1200 0.0213 -0.0805
0.1400 0.0280 -0.1044
0.1600 0.0353 -0.1131
0.1800 0.0428 -0.0959
0.2000 0.0499 -0.1104
0.2200 0.0568 -0.1114
0.2400 0.0635 -0.0921
0.2600 0.0701 -0.1108
0.2800 0.0768 -0.1013
0.3000 0.0835 -0.0896
0.3200 0.0902 -0.1140
0.3400 0.0969 -0.0937
0.3600 0.1036 -0.0895
0.3800 0.1103 -0.1167
0.4000 0.1169 -0.0901
0.4200 0.1236 -0.0874
0.4400 0.1303 -0.1037
0.4600 0.1370 -0.0875
0.4800 0.1437 -0.0922
0.5000 0.1504 -0.1014
0.5200 0.1571 -0.0866
0.5400 0.1637 -0.0844
0.5600 0.1702 -0.0997
0.5800 0.1769 -0.0822
0.6000 0.1836 -0.0882
0.6200 0.1903 -0.0920
0.6400 0.1970 -0.0817
0.6600 0.2037 -0.0857
0.6800 0.2103 -0.0865
0.7000 0.2170 -0.0791
0.7200 0.2236 -0.0847
0.7400 0.2302 -0.0832
0.7600 0.2369 -0.0741
0.7800 0.2436 -0.0801
0.8000 0.2503 -0.0841
0.8200 0.2569 -0.0740
0.8400 0.2636 -0.0789
0.8600 0.2703 -0.0731
0.8800 0.2770 -0.0732
0.9000 0.2836 -0.0772
0.9200 0.2902 -0.0755
0.9400 0.2968 -0.0716
0.9600 0.3035 -0.0690
0.9800 0.3102 -0.0786
1.0000 0.3169 -0.0742
1.0200 0.3236 -0.0711
1.0400 0.3303 -0.0760
1.0600 0.3370 -0.0657
1.0800 0.3436 -0.0700
1.1000 0.3502 -0.0747
1.1200 0.3569 -0.0683
1.1400 0.3636 -0.0683
1.1600 0.3703 -0.0728
1.1800 0.3770 -0.0668
1.2000 0.3837 -0.0713
1.2200 0.3904 -0.0747
1.2400 0.3970 -0.0685
1.2600 0.4037 -0.0736
1.2800 0.4103 -0.0699
1.3000 0.4169 -0.0684
1.3200 0.4236 -0.0765
1.3400 0.4303 -0.0801
1.3600 0.4370 -0.0695
1.3800 0.4437 -0.0750
1.4000 0.4503 -0.0707
1.4200 0.4570 -0.0751
1.4400 0.4637 -0.0792
1.4600 0.4702 -0.0702
1.4800 0.4769 -0.0751
1.5000 0.4835 -0.0798
1.5200 0.4902 -0.0766
1.5400 0.4969 -0.0816
1.5600 0.5036 -0.0728
1.5800 0.5103 -0.0817
1.6000 0.5170 -0.0872
1.6200 0.5236 -0.0771
1.6400 0.5302 -0.0798
1.6600 0.5368 -0.0870
1.6800 0.5435 -0.0767
1.7000 0.5503 -0.0843
1.7200 0.5570 -0.0901
1.7400 0.5636 -0.0767
1.7600 0.5703 -0.0842
1.7800 0.5770 -0.0928
1.8000 0.5837 -0.0750
1.8200 0.5903 -0.0893
1.8400 0.5969 -0.0932
1.8600 0.6036 -0.0763
1.8800 0.6103 -0.0875
1.9000 0.6170 -0.0902
1.9200 0.6237 -0.0798
1.9400 0.6304 -0.0906
1.9600 0.6370 -0.0918
1.9800 0.6437 -0.0821
2.0000 0.6503 -0.0924
2.0200 0.6569 -0.0843
2.0400 0.6636 -0.0769
2.0600 0.6703 -0.0953
2.0800 0.6770 -0.0912
2.1000 0.6837 -0.0799
2.1200 0.6903 -0.0938
2.1400 0.6970 -0.0872
2.1600 0.7037 -0.0814
2.1800 0.7103 -0.0976
2.2000 0.7169 -0.0879
2.2200 0.7236 -0.0789
2.2400 0.7303 -0.0948
2.2600 0.7370 -0.0837
2.2800 0.7436 -0.0867
2.3000 0.7503 -0.0958
2.3200 0.7570 -0.0836
2.3400 0.7636 -0.0839
2.3600 0.7703 -0.0952
2.3800 0.7769 -0.0807
2.4000 0.7835 -0.0896
2.4200 0.7902 -0.0929
2.4400 0.7969 -0.0839
2.4600 0.8036 -0.0934
2.4800 0.8103 -0.0871
2.5000 0.8170 -0.0858
2.5200 0.8237 -0.0983
2.5400 0.8303 -0.0872
2.5600 0.8369 -0.0857
2.5800 0.8436 -0.0923
2.6000 0.8503 -0.0883
2.6200 0.8570 -0.0887
2.6400 0.8637 -0.0909
2.6600 0.8704 -0.0875
2.6800 0.8770 -0.0902
2.7000 0.8837 -0.0938
2.7200 0.8903 -0.0861
2.7400 0.8969 -0.0910
2.7600 0.9036 -0.0928
2.7800 0.9103 -0.0861
2.8000 0.9170 -0.0960
2.8200 0.9237 -0.0884
2.8400 0.9304 -0.0845
2.8600 0.9370 -0.0952
2.8800 0.9437 -0.0924
2.9000 0.9503 -0.0908
2.9200 0.9569 -0.0931
2.9400 0.9635 -0.0898
2.9600 0.9702 -0.0904
2.9800 0.9770 -0.0959
3.0000 0.9837 -0.0947
3.0200 0.9903 -0.0927
3.0400 0.9970 -0.0913
3.0600 1.0037 -0.0938
3.0800 1.0103 -0.0976
3.1000 1.0168 -0.0894
3.1200 1.0235 -0.0898
3.1400 1.0302 -0.0974
3.1600 1.0370 -0.0920
3.1800 1.0436 -0.0928
3.2000 1.0503 -0.0972
3.2200 1.0570 -0.0944
3.2400 1.0637 -0.0951
3.2600 1.0703 -0.0960
3.2800 1.0769 -0.0931
3.3000 1.0836 -0.0954
3.3200 1.0903 -0.0900
3.3400 1.0970 -0.0923
3.3600 1.1037 -0.0914
3.3800 1.1104 -0.0985
3.4000 1.1171 -0.0955
3.4200 1.1237 -0.0896
3.4400 1.1303 -0.0952
3.4600 1.1369 -0.0956
3.4800 1.1436 -0.0919
3.5000 1.1503 -0.0952
3.5200 1.1570 -0.0941
3.5400 1.1637 -0.0948
3.5600 1.1704 -0.0936
3.5800 1.1770 -0.0986
3.6000 1.1837 -0.0962
3.6200 1.1903 -0.0929
3.6400 1.1969 -0.0967
3.6600 1.2035 -0.0936
3.6800 1.2103 -0.0952
3.7000 1.2170 -0.0937
3.7200 1.2236 -0.0960
3.7400 1.2303 -0.0943
3.7600 1.2370 -0.0939
3.7800 1.2437 -0.0956
3.8000 1.2503 -0.0947
3.8200 1.2569 -0.0966
3.8400 1.2636 -0.0958
3.8600 1.2703 -0.0911
3.8800 1.2770 -0.0942
3.9000 1.2836 -0.0965
3.9200 1.2903 -0.0953
3.9400 1.2970 -0.0966
3.9600 1.3037 -0.0946
3.9800 1.3103 -0.0901
4.0000 1.3169 -0.0960
4.0200 1.3235 -0.0925
4.0400 1.3302 -0.0919
4.0600 1.3369 -0.0969
4.0800 1.3437 -0.0901
4.1000 1.3503 -0.0909
4.1200 1.3570 -0.0953
4.1400 1.3637 -0.0890
4.1600 1.3703 -0.0966
4.1800 1.3769 -0.0953
4.2000 1.3836 -0.0875
4.2200 1.3903 -0.0927
4.2400 1.3970 -0.0985
4.2600 1.4037 -0.0929
4.2800 1.4104 -0.0962
4.3000 1.4170 -0.0916
4.3200 1.4237 -0.0920
4.3400 1.4303 -0.0971
4.3600 1.4369 -0.0912
4.3800 1.4435 -0.0955
4.4000 1.4502 -0.0927
4.4200 1.4570 -0.0901
4.4400 1.4636 -0.0959
4.4600 1.4703 -0.0930
4.4800 1.4770 -0.0924
4.5000 1.4837 -0.1000
4.5200 1.4903 -0.0979
4.5400 1.4969 -0.0898
4.5600 1.5035 -0.0961
4.5800 1.5102 -0.0961
4.6000 1.5169 -0.0948
4.6200 1.5236 -0.0993
4.6400 1.5303 -0.0881
4.6600 1.5370 -0.0980
4.6800 1.5437 -0.1051
4.7000 1.5503 -0.0905
4.7200 1.5569 -0.0977
4.7400 1.5636 -0.1021
4.7600 1.5703 -0.0859
4.7800 1.5770 -0.1026
4.8000 1.5837 -0.1003
4.8200 1.5904 -0.0892
4.8400 1.5971 -0.0991
4.8600 1.6037 -0.0998
4.8800 1.6103 -0.0953
4.9000 1.6169 -0.1024
4.9200 1.6236 -0.1001
4.9400 1.6303 -0.0947
4.9600 1.6370 -0.1042
4.9800 1.6437 -0.1075
5.0000 1.6503 -0.0964
5.0200 1.6570 -0.0982
5.0400 1.6637 -0.1041
5.0600 1.6703 -0.0991
5.0800 1.6769 -0.0964
5.1000 1.6835 -0.1076
5.1200 1.6902 -0.0979
5.1400 1.6969 -0.0981
5.1600 1.7036 -0.1077
5.1800 1.7103 -0.0939
5.2000 1.7170 -0.1033
5.2200 1.7237 -0.1112
5.2400 1.7303 -0.0946
5.2600 1.7369 -0.1003
5.2800 1.7435 -0.1099
5.3000 1.7502 -0.0979
5.3200 1.7569 -0.1008
5.3400 1.7636 -0.1134
5.3600 1.7703 -0.0976
5.3800 1.7770 -0.0945
5.4000 1.7836 -0.1094
5.4200 1.7903 -0.1017
5.4400 1.7969 -0.1022
5.4600 1.8036 -0.1078
5.4800 1.8102 -0.0998
5.5000 1.8170 -0.1036
5.5200 1.8237 -0.1126
5.5400 1.8304 -0.0982
5.5600 1.8371 -0.1026
5.5800 1.8437 -0.1099
5.6000 1.8504 -0.0965
5.6200 1.8569 -0.1028
5.6400 1.8636 -0.1143
5.6600 1.8702 -0.0932
5.6800 1.8770 -0.1087
5.7000 1.8837 -0.1125
5.7200 1.8903 -0.0977
5.7400 1.8970 -0.1070
5.7600 1.9037 -0.1164
5.7800 1.9103 -0.0972
5.8000 1.9169 -0.1059
5.8200 1.9235 -0.1101
5.8400 1.9302 -0.1014
5.8600 1.9369 -0.1132
5.8800 1.9436 -0.1084
5.9000 1.9503 -0.0976
5.9200 1.9570 -0.1143
5.9400 1.9636 -0.1079
5.9600 1.9703 -0.1006
5.9800 1.9769 -0.1145
6.0000 1.9835 -0.1086
6.0200 1.9902 -0.1014
6.0400 1.9969 -0.1188
6.0600 2.0036 -0.1073
6.0800 2.0103 -0.1002
6.1000 2.0170 -0.1201
6.1200 2.0237 -0.1086
6.1400 2.0304 -0.1046
6.1600 2.0369 -0.1189
6.1800 2.0436 -0.1057
6.2000 2.0502 -0.1063
6.2200 2.0570 -0.1187
6.2400 2.0637 -0.1051
6.2600 2.0703 -0.1136
6.2800 2.0770 -0.1151
6.3000 2.0837 -0.1065
6.3200 2.0903 -0.1147
6.3400 2.0969 -0.1152
6.3600 2.1035 -0.1013
6.3800 2.1102 -0.1140
6.4000 2.1170 -0.1163
6.4200 2.1237 -0.1095
6.4400 2.1303 -0.1125
6.4600 2.1370 -0.1079
6.4800 2.1437 -0.1110
6.5000 2.1504 -0.1118
6.5200 2.1570 -0.1056
6.5400 2.1636 -0.1156
6.5600 2.1703 -0.1124
6.5800 2.1769 -0.1105
6.6000 2.1836 -0.1080
6.6200 2.1903 -0.1125
6.6400 2.1970 -0.1087
6.6600 2.2037 -0.1150
6.6800 2.2103 -0.1127
6.7000 2.2169 -0.1085
6.7200 2.2235 -0.1129
6.7400 2.2302 -0.1077
6.7600 2.2369 -0.1114
6.7800 2.2436 -0.1176
6.8000 2.2503 -0.1062
6.8200 2.2570 -0.1147
6.8400 2.2637 -0.1152
6.8600 2.2703 -0.1055
6.8800 2.2769 -0.1193
6.9000 2.2836 -0.1131
6.9200 2.2902 -0.1057
6.9400 2.2969 -0.1183
6.9600 2.3036 -0.1135
6.9800 2.3103 -0.1109
7.0000 2.3170 -0.1116
7.0200 2.3237 -0.1157
7.0400 2.3303 -0.1155
7.0600 2.3370 -0.1114
7.0800 2.3436 -0.1130
7.1000 2.3502 -0.1132
7.1200 2.3569 -0.1141
7.1400 2.3636 -0.1150
7.1600 2.3703 -0.1149
7.1800 2.3770 -0.1126
7.2000 2.3837 -0.1163
7.2200 2.3904 -0.1086
7.2400 2.3970 -0.1148
7.2600 2.4036 -0.1184
7.2800 2.4102 -0.1120
7.3000 2.4169 -0.1077
7.3200 2.4237 -0.1179
7.3400 2.4303 -0.1166
7.3600 2.4370 -0.1078
7.3800 2.4437 -0.1182
7.4000 2.4503 -0.1175
7.4200 2.4569 -0.1130
7.4400 2.4635 -0.1159
7.4600 2.4702 -0.1076
7.4800 2.4769 -0.1141
7.5000 2.4836 -0.1188
7.5200 2.4903 -0.1131
7.5400 2.4969 -0.1111
7.5600 2.5036 -0.1174
7.5800 2.5103 -0.1171
7.6000 2.5169 -0.1133
7.6200 2.5236 -0.1151
7.6400 2.5302 -0.1140
7.6600 2.5369 -0.1165
7.6800 2.5437 -0.1175
7.7000 2.5504 -0.1095
7.7200 2.5570 -0.1149
7.7400 2.5637 -0.1173
7.7600 2.5704 -0.1130
7.7800 2.5770 -0.1225
7.8000 2.5836 -0.1131
7.8200 2.5902 -0.1118
7.8400 2.5970 -0.1193
7.8600 2.6037 -0.1155
7.8800 2.6103 -0.1172
7.9000 2.6170 -0.1239
7.9200 2.6237 -0.1108
7.9400 2.6303 -0.1162
7.9600 2.6369 -0.1270
7.9800 2.6436 -0.1139
8.0000 2.6502 -0.1136
8.0200 2.6569 -0.1243
8.0400 2.6636 -0.1172
8.0600 2.6703 -0.1213
8.0800 2.6770 -0.1197
8.1000 2.6837 -0.1140
8.1200 2.6903 -0.1237
8.1400 2.6970 -0.1238
8.1600 2.7035 -0.1120
8.1800 2.7102 -0.1205
8.2000 2.7169 -0.1216
8.2200 2.7236 -0.1179
8.2400 2.7303 -0.1207
8.2600 2.7370 -0.1212
8.2800 2.7437 -0.1181
8.3000 2.7504 -0.1223
8.3200 2.7570 -0.1226
8.3400 2.7635 -0.1202
8.3600 2.7702 -0.1207
8.3800 2.7769 -0.1185
8.4000 2.7836 -0.1240
8.4200 2.7903 -0.1215
8.4400 2.7970 -0.1168
8.4600 2.8037 -0.1261
8.4800 2.8103 -0.1226
8.5000 2.8170 -0.1196
8.5200 2.8236 -0.1266
8.5400 2.8302 -0.1228
8.5600 2.8369 -0.1240
8.5800 2.8437 -0.1198
8.6000 2.8504 -0.1233
8.6200 2.8570 -0.1294
8.6400 2.8637 -0.1240
8.6600 2.8704 -0.1202
8.6800 2.8770 -0.1286
8.7000 2.8836 -0.1194
8.7200 2.8902 -0.1212
8.7400 2.8969 -0.1298
8.7600 2.9036 -0.1179
8.7800 2.9103 -0.1197
8.8000 2.9170 -0.1311
8.8200 2.9237 -0.1175
8.8400 2.9303 -0.1282
8.8600 2.9369 -0.1330
8.8800 2.9435 -0.1120
8.9000 2.9502 -0.1264
8.9200 2.9569 -0.1339
8.9400 2.9636 -0.1091
8.9600 2.9703 -0.1298
8.9800 2.9769 -0.1345
9.0000 2.9836 -0.1086
9.0200 2.9903 -0.1259
9.0400 2.9970 -0.1334
9.0600 3.0036 -0.1170
9.0800 3.0102 -0.1317
9.1000 3.0169 -0.1187
9.1200 3.0236 -0.1146
9.1400 3.0303 -0.1452
9.1600 3.0370 -0.1262
9.1800 3.0437 -0.1072
9.2000 3.0504 -0.1379
9.2200 3.0570 -0.1259
9.2400 3.0636 -0.1154
9.2600 3.0702 -0.1360
9.2800 3.0769 -0.1166
9.3000 3.0836 -0.1190
9.3200 3.0904 -0.1343
9.3400 3.0970 -0.1162
9.3600 3.1037 -0.1235
9.3800 3.1104 -0.1431
9.4000 3.1170 -0.1114
9.4200 3.1236 -0.1162
9.4400 3.1302 -0.1368
9.4600 3.1369 -0.1268
9.4800 3.1436 -0.1274
9.5000 3.1503 -0.1243
9.5200 3.1570 -0.1165
9.5400 3.1637 -0.1302
9.5600 3.1704 -0.1310
9.5800 3.1770 -0.1238
9.6000 3.1836 -0.1240
9.6200 3.1902 -0.1218
9.6400 3.1969 -0.1280
9.6600 3.2036 -0.1282
9.6800 3.2103 -0.1231
9.7000 3.2170 -0.1306
9.7200 3.2236 -0.1230
9.7400 3.2303 -0.1237
9.7600 3.2370 -0.1331
9.7800 3.2436 -0.1267
9.8000 3.2502 -0.1221
9.8200 3.2569 -0.1284
9.8400 3.2636 -0.1238
9.8600 3.2703 -0.1270
9.8800 3.2770 -0.1325
9.9000 3.2837 -0.1179
9.9200 3.2904 -0.1287
9.9400 3.2970 -0.1324
9.9600 3.3036 -0.1183
9.9800 3.3102 -0.1325
10.0000 3.3169 -0.1283
10.0200 3.3237 -0.1192
10.0400 3.3304 -0.1315
10.0600 3.3370 -0.1325
10.0800 3.3437 -0.1230
10.1000 3.3503 -0.1311
10.1200 3.3570 -0.1315
10.1400 3.3636 -0.1250
10.1600 3.3702 -0.1339
10.1800 3.3769 -0.1289
10.2000 3.3836 -0.1219
10.2200 3.3903 -0.1329
10.2400 3.3970 -0.1281
10.2600 3.4036 -0.1274
10.2800 3.4103 -0.1319
10.3000 3.4170 -0.1250
10.3200 3.4236 -0.1298
10.3400 3.4302 -0.1290
10.3600 3.4369 -0.1276
10.3800 3.4436 -0.1282
10.4000 3.4503 -0.1314
10.4200 3.4570 -0.1335
10.4400 3.4636 -0.1253
10.4600 3.4703 -0.1306
10.4800 3.4770 -0.1354
10.5000 3.4836 -0.1252
10.5200 3.4902 -0.1338
10.5400 3.4969 -0.1286
10.5600 3.5036 -0.1278
10.5800 3.5103 -0.1350
10.6000 3.5170 -0.1365
10.6200 3.5237 -0.1262
10.6400 3.5304 -0.1345
10.6600 3.5370 -0.1324
10.6800 3.5436 -0.1240
10.7000 3.5502 -0.1358
10.7200 3.5569 -0.1290
10.7400 3.5636 -0.1289
10.7600 3.5703 -0.1402
10.7800 3.5770 -0.1260
10.8000 3.5837 -0.1273
10.8200 3.5904 -0.1423
10.8400 3.5970 -0.1290
10.8600 3.6036 -0.1222
10.8800 3.6102 -0.1398
10.9000 3.6169 -0.1281
10.9200 3.6236 -0.1242
10.9400 3.6303 -0.1409
10.9600 3.6370 -0.1258
10.9800 3.6437 -0.1292
11.0000 3.6504 -0.1403
11.0200 3.6570 -0.1241
11.0400 3.6636 -0.1314
11.0600 3.6702 -0.1391
11.0800 3.6769 -0.1175
11.1000 3.6836 -0.1359
11.1200 3.6903 -0.1404
11.1400 3.6969 -0.1174
11.1600 3.7036 -0.1353
11.1800 3.7103 -0.1436
11.2000 3.7170 -0.1206
11.2200 3.7236 -0.1339
11.2400 3.7302 -0.1385
11.2600 3.7369 -0.1241
11.2800 3.7436 -0.1301
11.3000 3.7503 -0.1367
11.3200 3.7570 -0.1275
11.3400 3.7637 -0.1356
11.3600 3.7704 -0.1349
11.3800 3.7771 -0.1281
11.4000 3.7836 -0.1409
11.4200 3.7902 -0.1298
11.4400 3.7969 -0.1277
11.4600 3.8036 -0.1391
11.4800 3.8104 -0.1295
11.5000 3.8170 -0.1299
11.5200 3.8237 -0.1387
11.5400 3.8304 -0.1317
11.5600 3.8370 -0.1346
11.5800 3.8436 -0.1283
11.6000 3.8502 -0.1326
11.6200 3.8569 -0.1384
11.6400 3.8636 -0.1249
11.6600 3.8703 -0.1324
11.6800 3.8769 -0.1419
11.7000 3.8836 -0.1224
11.7200 3.8903 -0.1308
11.7400 3.8970 -0.1477
11.7600 3.9036 -0.1314
11.7800 3.9102 -0.1261
11.8000 3.9168 -0.1367
11.8200 3.9235 -0.1285
11.8400 3.9303 -0.1417
11.8600 3.9369 -0.1356
11.8800 3.9436 -0.1235
11.9000 3.9503 -0.1395
11.9200 3.9570 -0.1387
11.9400 3.9636 -0.1276
11.9600 3.9702 -0.1393
11.9800 3.9769 -0.1325
12.0000 3.9836 -0.1320
12.0200 3.9903 -0.1368
12.0400 3.9970 -0.1318
12.0600 4.0037 -0.1327
12.0800 4.0104 -0.1399
12.1000 4.0170 -0.1294
12.1200 4.0236 -0.1283
12.1400 4.0303 -0.1400
12.1600 4.0369 -0.1389
12.1800 4.0436 -0.1315
12.2000 4.0503 -0.1382
12.2200 4.0570 -0.1329
12.2400 4.0637 -0.1344
12.2600 4.0704 -0.1370
12.2800 4.0770 -0.1374
12.3000 4.0836 -0.1367
12.3200 4.0902 -0.1326
12.3400 4.0969 -0.1371
12.3600 4.1036 -0.1380
12.3800 4.1103 -0.1356
12.4000 4.1170 -0.1367
12.4200 4.1237 -0.1357
12.4400 4.1304 -0.1355
12.4600 4.1370 -0.1352
12.4800 4.1436 -0.1409
12.5000 4.1502 -0.1390
12.5200 4.1569 -0.1379
12.5400 4.1636 -0.1284
12.5600 4.1703 -0.1413
12.5800 4.1770 -0.1460
12.6000 4.1836 -0.1257
12.6200 4.1903 -0.1399
12.6400 4.1970 -0.1435
12.6600 4.2036 -0.1286
12.6800 4.2103 -0.1409
12.7000 4.2169 -0.1432
12.7200 4.2236 -0.1290
12.7400 4.2303 -0.1417
12.7600 4.2370 -0.1380
12.7800 4.2437 -0.1313
12.8000 4.2504 -0.1425
12.8200 4.2570 -0.1402
12.8400 4.2636 -0.1322
12.8600 4.2702 -0.1426
12.8800 4.2769 -0.1365
12.9000 4.2836 -0.1393
12.9200 4.2903 -0.1451
12.9400 4.2970 -0.1338
12.9600 4.3037 -0.1385
12.9800 4.3104 -0.1456
13.0000 4.3170 -0.1357
13.0200 4.3236 -0.1403
13.0400 4.3302 -0.1388
13.0600 4.3369 -0.1371
13.0800 4.3436 -0.1355
13.1000 4.3503 -0.1427
13.1200 4.3570 -0.1414
13.1400 4.3637 -0.1371
13.1600 4.3703 -0.1383
13.1800 4.3770 -0.1470
13.2000 4.3836 -0.1406
13.2200 4.3902 -0.1367
13.2400 4.3969 -0.1432
13.2600 4.4035 -0.1393
13.2800 4.4103 -0.1373
13.3000 4.4169 -0.1412
13.3200 4.4236 -0.1426
13.3400 4.4303 -0.1417
13.3600 4.4370 -0.1406
13.3800 4.4436 -0.1403
13.4000 4.4502 -0.1414
13.4200 4.4569 -0.1397
13.4400 4.4636 -0.1351
13.4600 4.4703 -0.1444
13.4800 4.4770 -0.1446
13.5000 4.4837 -0.1371
13.5200 4.4904 -0.1430
13.5400 4.4970 -0.1413
13.5600 4.5036 -0.1404
13.5800 4.5102 -0.1399
13.6000 4.5169 -0.1498
13.6200 4.5236 -0.1440
13.6400 4.5303 -0.1398
13.6600 4.5370 -0.1362
13.6800 4.5437 -0.1482
13.7000 4.5504 -0.1417
13.7200 4.5570 -0.1387
13.7400 4.5636 -0.1471
13.7600 4.5702 -0.1351
13.7800 4.5768 -0.1383
13.8000 4.5835 -0.1522
13.8200 4.5903 -0.1354
13.8400 4.5970 -0.1370
13.8600 4.6037 -0.1497
13.8800 4.6103 -0.1386
13.9000 4.6170 -0.1427
13.9200 4.6237 -0.1487
13.9400 4.6302 -0.1313
13.9600 4.6369 -0.1430
13.9800 4.6435 -0.1467
14.0000 4.6503 -0.1337
14.0200 4.6570 -0.1471
14.0400 4.6637 -0.1467
14.0600 4.6703 -0.1378
14.0800 4.6770 -0.1444
14.1000 4.6836 -0.1494
14.1200 4.6902 -0.1390
14.1400 4.6969 -0.1417
14.1600 4.7036 -0.1426
14.1800 4.7103 -0.1403
14.2000 4.7170 -0.1439
14.2200 4.7237 -0.1461
14.2400 4.7304 -0.1407
14.2600 4.7371 -0.1456
14.2800 4.7437 -0.1441
14.3000 4.7503 -0.1431
14.3200 4.7569 -0.1426
14.3400 4.7636 -0.1451
14.3600 4.7703 -0.1386
14.3800 4.7770 -0.1433
14.4000 4.7837 -0.1500
14.4200 4.7904 -0.1406
14.4400 4.7971 -0.1446
14.4600 4.8037 -0.1460
14.4800 4.8103 -0.1396
14.5000 4.8169 -0.1464
14.5200 4.8236 -0.1405
14.5400 4.8303 -0.1426
14.5600 4.8370 -0.1460
14.5800 4.8436 -0.1408
14.6000 4.8503 -0.1388
14.6200 4.8570 -0.1452
14.6400 4.8636 -0.1470
14.6600 4.8702 -0.1401
14.6800 4.8769 -0.1436
14.7000 4.8835 -0.1426
14.7200 4.8903 -0.1426
14.7400 4.8970 -0.1462
14.7600 4.9036 -0.1457
14.7800 4.9103 -0.1448
14.8000 4.9170 -0.1431
14.8200 4.9236 -0.1479
14.8400 4.9303 -0.1444
14.8600 4.9369 -0.1440
14.8800 4.9436 -0.1444
14.9000 4.9503 -0.1456
14.9200 4.9570 -0.1480
14.9400 4.9637 -0.1464
14.9600 4.9704 -0.1449
14.9800 4.9770 -0.1484
15.0000 4.9837 -0.1541
15.0200 4.9902 -0.1396
15.0400 4.9969 -0.1469
15.0600 5.0036 -0.1517
15.0800 5.0103 -0.1442
15.1000 5.0170 -0.1417
15.1200 5.0237 -0.1518
15.1400 5.0304 -0.1471
15.1600 5.0370 -0.1444
15.1800 5.0436 -0.1545
15.2000 5.0502 -0.1475
15.2200 5.0569 -0.1424
15.2400 5.0635 -0.1586
15.2600 5.0703 -0.1430
15.2800 5.0770 -0.1460
15.3000 5.0837 -0.1555
15.3200 5.0904 -0.1431
15.3400 5.0971 -0.1493
15.3600 5.1037 -0.1546
15.3800 5.1103 -0.1438
15.4000 5.1168 -0.1531
15.4200 5.1235 -0.1537
15.4400 5.1302 -0.1394
15.4600 5.1369 -0.1541
15.4800 5.1436 -0.1559
15.5000 5.1503 -0.1356
15.5200 5.1570 -0.1576
15.5400 5.1636 -0.1576
15.5600 5.1702 -0.1437
15.5800 5.1769 -0.1514
15.6000 5.1836 -0.1506
15.6200 5.1903 -0.1437
15.6400 5.1970 -0.1556
15.6600 5.2037 -0.1522
15.6800 5.2103 -0.1427
15.7000 5.2171 -0.1549
15.7200 5.2237 -0.1500
15.7400 5.2304 -0.1485
15.7600 5.2370 -0.1518
15.7800 5.2436 -0.1480
15.8000 5.2503 -0.1511
15.8200 5.2570 -0.1532
15.8400 5.2637 -0.1437
15.8600 5.2704 -0.1534
15.8800 5.2771 -0.1528
15.9000 5.2837 -0.1442
15.9200 5.2903 -0.1512
15.9400 5.2969 -0.1530
15.9600 5.3035 -0.1458
15.9800 5.3102 -0.1534
16.0000 5.3169 -0.1511
16.0200 5.3236 -0.1478
16.0400 5.3303 -0.1537
16.0600 5.3370 -0.1497
16.0800 5.3437 -0.1480
16.1000 5.3503 -0.1571
16.1200 5.3569 -0.1493
16.1400 5.3636 -0.1438
16.1600 5.3703 -0.1589
16.1800 5.3770 -0.1509
16.2000 5.3836 -0.1400
16.2200 5.3903 -0.1581
16.2400 5.3970 -0.1483
16.2600 5.4037 -0.1456
16.2800 5.4103 -0.1590
16.3000 5.4169 -0.1491
16.3200 5.4236 -0.1473
16.3400 5.4303 -0.1570
16.3600 5.4370 -0.1538
16.3800 5.4437 -0.1437
16.4000 5.4503 -0.1549
16.4200 5.4570 -0.1526
16.4400 5.4637 -0.1459
16.4600 5.4703 -0.1487
16.4800 5.4769 -0.1525
16.5000 5.4835 -0.1505
16.5200 5.4903 -0.1499
16.5400 5.4970 -0.1528
16.5600 5.5037 -0.1491
16.5800 5.5104 -0.1494
16.6000 5.5170 -0.1524
16.6200 5.5237 -0.1466
16.6400 5.5302 -0.1539
16.6600 5.5369 -0.1462
16.6800 5.5436 -0.1476
16.7000 5.5503 -0.1521
16.7200 5.5570 -0.1541
16.7400 5.5636 -0.1462
16.7600 5.5703 -0.1524
16.7800 5.5769 -0.1511
16.8000 5.5836 -0.1485
16.8200 5.5902 -0.1557
16.8400 5.5968 -0.1480
16.8600 5.6035 -0.1477
16.8800 5.6103 -0.1525
16.9000 5.6170 -0.1530
16.9200 5.6236 -0.1505
16.9400 5.6303 -0.1533
16.9600 5.6370 -0.1537
16.9800 5.6437 -0.1475
17.0000 5.6503 -0.1528
17.0200 5.6569 -0.1511
