Raw Data
Time Displacement Force
(s) (mm) (N)
0.0000 0.0001 -0.2016
0.0200 0.0001 -0.2042
0.0400 0.0008 -0.1559
0.0600 0.0041 -0.1219
0.0800 0.0096 -0.1756
0.1000 0.0154 -0.1758
0.1200 0.0213 -0.1057
0.1400 0.0279 -0.1171
0.1600 0.0352 -0.1123
0.1800 0.0426 -0.0785
0.2000 0.0498 -0.0893
0.2200 0.0566 -0.0750
0.2400 0.0633 -0.0454
0.2600 0.0700 -0.0525
0.2800 0.0767 -0.0480
0.3000 0.0834 -0.0154
0.3200 0.0901 -0.0347
0.3400 0.0968 -0.0177
0.3600 0.1035 0.0019
0.3800 0.1101 -0.0169
0.4000 0.1168 -0.0027
0.4200 0.1234 0.0102
0.4400 0.1301 -0.0044
0.4600 0.1368 0.0144
0.4800 0.1435 0.0147
0.5000 0.1502 0.0103
0.5200 0.1569 0.0258
0.5400 0.1635 0.0388
0.5600 0.1701 0.0250
0.5800 0.1767 0.0534
0.6000 0.1834 0.0516
0.6200 0.1902 0.0497
0.6400 0.1969 0.0754
0.6600 0.2035 0.0794
0.6800 0.2102 0.0846
0.7000 0.2169 0.0976
0.7200 0.2235 0.1084
0.7400 0.2301 0.1204
0.7600 0.2367 0.1438
0.7800 0.2434 0.1694
0.8000 0.2501 0.2036
0.8200 0.2568 0.2478
0.8400 0.2635 0.2820
0.8600 0.2702 0.3120
0.8800 0.2768 0.3469
0.9000 0.2835 0.3780
0.9200 0.2901 0.4208
0.9400 0.2967 0.4416
0.9600 0.3034 0.4745
0.9800 0.3101 0.4966
1.0000 0.3168 0.5048
1.0200 0.3235 0.5059
1.0400 0.3301 0.5081
1.0600 0.3368 0.5061
1.0800 0.3435 0.5108
1.1000 0.3501 0.5139
1.1200 0.3567 0.5110
1.1400 0.3634 0.5208
1.1600 0.3702 0.5185
1.1800 0.3769 0.5123
1.2000 0.3835 0.5245
1.2200 0.3902 0.5144
1.2400 0.3969 0.5216
1.2600 0.4035 0.5270
1.2800 0.4102 0.5167
1.3000 0.4168 0.5297
1.3200 0.4235 0.5265
1.3400 0.4302 0.5145
1.3600 0.4369 0.5256
1.3800 0.4435 0.5297
1.4000 0.4502 0.5200
1.4200 0.4569 0.5323
1.4400 0.4635 0.5280
1.4600 0.4701 0.5224
1.4800 0.4767 0.5336
1.5000 0.4834 0.5276
1.5200 0.4901 0.5215
1.5400 0.4968 0.5374
1.5600 0.5035 0.5229
1.5800 0.5102 0.5256
1.6000 0.5168 0.5336
1.6200 0.5235 0.5247
1.6400 0.5301 0.5283
1.6600 0.5367 0.5321
1.6800 0.5434 0.5195
1.7000 0.5501 0.5206
1.7200 0.5568 0.5311
1.7400 0.5635 0.5221
1.7600 0.5702 0.5202
1.7800 0.5768 0.5252
1.8000 0.5835 0.5197
1.8200 0.5901 0.5199
1.8400 0.5968 0.5236
1.8600 0.6034 0.5154
1.8800 0.6101 0.5220
1.9000 0.6168 0.5244
1.9200 0.6235 0.5114
1.9400 0.6302 0.5172
1.9600 0.6369 0.5266
1.9800 0.6435 0.5069
2.0000 0.6501 0.5198
2.0200 0.6568 0.5261
2.0400 0.6634 0.5122
2.0600 0.6701 0.5140
2.0800 0.6769 0.5196
2.1000 0.6835 0.5124
2.1200 0.6902 0.5162
2.1400 0.6969 0.5145
2.1600 0.7035 0.5107
2.1800 0.7101 0.5098
2.2000 0.7167 0.5197
2.2200 0.7234 0.5148
2.2400 0.7301 0.5080
2.2600 0.7369 0.5136
2.2800 0.7435 0.5154
2.3000 0.7502 0.5087
2.3200 0.7568 0.5138
2.3400 0.7635 0.5123
2.3600 0.7701 0.5069
2.3800 0.7767 0.5186
2.4000 0.7834 0.5091
2.4200 0.7901 0.5076
2.4400 0.7968 0.5165
2.4600 0.8035 0.5096
2.4800 0.8102 0.5087
2.5000 0.8169 0.5172
2.5200 0.8235 0.5082
2.5400 0.8301 0.5129
2.5600 0.8367 0.5128
2.5800 0.8434 0.5124
2.6000 0.8501 0.5107
2.6200 0.8569 0.5113
2.6400 0.8636 0.5083
2.6600 0.8702 0.5160
2.6800 0.8769 0.5146
2.7000 0.8835 0.5070
2.7200 0.8901 0.5111
2.7400 0.8968 0.5158
2.7600 0.9034 0.5093
2.7800 0.9102 0.5074
2.8000 0.9169 0.5104
2.8200 0.9235 0.5170
2.8400 0.9302 0.5067
2.8600 0.9369 0.5137
2.8800 0.9435 0.5151
2.9000 0.9501 0.4982
2.9200 0.9567 0.5170
2.9400 0.9634 0.5150
2.9600 0.9701 0.5097
2.9800 0.9768 0.5091
3.0000 0.9835 0.5098
3.0200 0.9902 0.5044
3.0400 0.9969 0.5084
3.0600 1.0035 0.5172
3.0800 1.0101 0.5095
3.1000 1.0167 0.5057
3.1200 1.0233 0.5152
3.1400 1.0301 0.5079
3.1600 1.0368 0.5096
3.1800 1.0435 0.5087
3.2000 1.0502 0.5101
3.2200 1.0569 0.5035
3.2400 1.0635 0.5060
3.2600 1.0701 0.5062
3.2800 1.0767 0.5140
3.3000 1.0834 0.5078
3.3200 1.0901 0.5036
3.3400 1.0968 0.5073
3.3600 1.1035 0.5095
3.3800 1.1102 0.5040
3.4000 1.1169 0.5091
3.4200 1.1236 0.5125
3.4400 1.1302 0.4990
3.4600 1.1368 0.5096
3.4800 1.1434 0.5156
3.5000 1.1501 0.5009
3.5200 1.1568 0.5076
3.5400 1.1635 0.5140
3.5600 1.1702 0.4971
3.5800 1.1769 0.5081
3.6000 1.1835 0.5071
3.6200 1.1901 0.5040
3.6400 1.1967 0.5081
3.6600 1.2034 0.5050
3.6800 1.2101 0.5034
3.7000 1.2168 0.5117
3.7200 1.2235 0.4991
3.7400 1.2302 0.5015
3.7600 1.2368 0.5144
3.7800 1.2435 0.5012
3.8000 1.2501 0.4956
3.8200 1.2568 0.5165
3.8400 1.2634 0.4992
3.8600 1.2701 0.4939
3.8800 1.2768 0.5159
3.9000 1.2835 0.5108
3.9200 1.2901 0.4974
3.9400 1.2968 0.5045
3.9600 1.3035 0.5002
3.9800 1.3102 0.5016
4.0000 1.3168 0.5098
4.0200 1.3234 0.4953
4.0400 1.3301 0.5062
4.0600 1.3368 0.5124
4.0800 1.3435 0.4965
4.1000 1.3502 0.5062
4.1200 1.3569 0.5098
4.1400 1.3635 0.4969
4.1600 1.3701 0.5087
4.1800 1.3768 0.5022
4.2000 1.3834 0.4961
4.2200 1.3901 0.5123
4.2400 1.3969 0.5057
4.2600 1.4036 0.4916
4.2800 1.4102 0.5108
4.3000 1.4169 0.5052
4.3200 1.4236 0.4993
4.3400 1.4302 0.5036
4.3600 1.4368 0.4999
4.3800 1.4434 0.5028
4.4000 1.4501 0.5136
4.4200 1.4568 0.4962
4.4400 1.4635 0.4974
4.4600 1.4701 0.5162
4.4800 1.4768 0.4943
4.5000 1.4835 0.4993
4.5200 1.4902 0.5112
4.5400 1.4968 0.4960
4.5600 1.5034 0.5030
4.5800 1.5101 0.5127
4.6000 1.5168 0.4958
4.6200 1.5235 0.5005
4.6400 1.5302 0.5109
4.6600 1.5369 0.4951
4.6800 1.5435 0.4944
4.7000 1.5502 0.5092
4.7200 1.5568 0.4921
4.7400 1.5634 0.5006
4.7600 1.5701 0.5129
4.7800 1.5769 0.4986
4.8000 1.5836 0.4974
4.8200 1.5903 0.5091
4.8400 1.5969 0.4946
4.8600 1.6036 0.5011
4.8800 1.6102 0.5075
4.9000 1.6168 0.4955
4.9200 1.6234 0.5030
4.9400 1.6301 0.5062
4.9600 1.6368 0.4912
4.9800 1.6435 0.5047
5.0000 1.6502 0.5025
5.0200 1.6569 0.4937
5.0400 1.6636 0.5079
5.0600 1.6702 0.4954
5.0800 1.6768 0.4926
5.1000 1.6834 0.5036
5.1200 1.6901 0.5036
5.1400 1.6968 0.4906
5.1600 1.7035 0.5036
5.1800 1.7102 0.5015
5.2000 1.7169 0.4880
5.2200 1.7236 0.5043
5.2400 1.7302 0.5096
5.2600 1.7368 0.4838
5.2800 1.7434 0.5045
5.3000 1.7501 0.5004
5.3200 1.7568 0.4830
5.3400 1.7635 0.5038
5.3600 1.7701 0.5019
5.3800 1.7768 0.4837
5.4000 1.7835 0.5076
5.4200 1.7901 0.4991
5.4400 1.7968 0.4807
5.4600 1.8034 0.5080
5.4800 1.8101 0.4972
5.5000 1.8168 0.4833
5.5200 1.8235 0.5010
5.5400 1.8302 0.4947
5.5600 1.8369 0.4872
5.5800 1.8436 0.5014
5.6000 1.8502 0.4883
5.6200 1.8568 0.4939
5.6400 1.8634 0.5047
5.6600 1.8701 0.4848
5.6800 1.8768 0.4938
5.7000 1.8835 0.5007
5.7200 1.8902 0.4780
5.7400 1.8969 0.4983
5.7600 1.9035 0.4934
5.7800 1.9102 0.4755
5.8000 1.9168 0.4945
5.8200 1.9234 0.5030
5.8400 1.9301 0.4850
5.8600 1.9368 0.4947
5.8800 1.9435 0.4939
5.9000 1.9501 0.4847
5.9200 1.9568 0.4940
5.9400 1.9635 0.4915
5.9600 1.9701 0.4874
5.9800 1.9768 0.4964
6.0000 1.9834 0.4845
6.0200 1.9901 0.4903
6.0400 1.9968 0.4961
6.0600 2.0035 0.4793
6.0800 2.0102 0.4916
6.1000 2.0169 0.4947
6.1200 2.0236 0.4799
6.1400 2.0302 0.4890
6.1600 2.0368 0.4935
6.1800 2.0434 0.4810
6.2000 2.0501 0.4913
6.2200 2.0568 0.4848
6.2400 2.0635 0.4811
6.2600 2.0702 0.4921
6.2800 2.0769 0.4895
6.3000 2.0835 0.4809
6.3200 2.0902 0.4925
6.3400 2.0968 0.4819
6.3600 2.1034 0.4890
6.3800 2.1101 0.4866
6.4000 2.1168 0.4762
6.4200 2.1235 0.4868
6.4400 2.1302 0.4956
6.4600 2.1369 0.4800
6.4800 2.1436 0.4788
6.5000 2.1502 0.4915
6.5200 2.1568 0.4835
6.5400 2.1634 0.4899
6.5600 2.1701 0.4863
6.5800 2.1768 0.4725
6.6000 2.1835 0.4934
6.6200 2.1902 0.4835
6.6400 2.1969 0.4754
6.6600 2.2036 0.4909
6.6800 2.2102 0.4803
6.7000 2.2168 0.4810
6.7200 2.2234 0.4864
6.7400 2.2300 0.4825
6.7600 2.2367 0.4823
6.7800 2.2435 0.4830
6.8000 2.2502 0.4772
6.8200 2.2568 0.4889
6.8400 2.2635 0.4809
6.8600 2.2702 0.4782
6.8800 2.2768 0.4872
6.9000 2.2834 0.4820
6.9200 2.2901 0.4736
6.9400 2.2968 0.4850
6.9600 2.3035 0.4787
6.9800 2.3102 0.4842
7.0000 2.3169 0.4786
7.0200 2.3236 0.4791
7.0400 2.3302 0.4844
7.0600 2.3368 0.4811
7.0800 2.3434 0.4746
7.1000 2.3501 0.4884
7.1200 2.3568 0.4739
7.1400 2.3635 0.4688
7.1600 2.3702 0.4957
7.1800 2.3769 0.4692
7.2000 2.3836 0.4740
7.2200 2.3902 0.4933
7.2400 2.3968 0.4649
7.2600 2.4034 0.4796
7.2800 2.4101 0.4969
7.3000 2.4168 0.4571
7.3200 2.4235 0.4853
7.3400 2.4302 0.4902
7.3600 2.4369 0.4601
7.3800 2.4435 0.4858
7.4000 2.4502 0.4909
7.4200 2.4568 0.4545
7.4400 2.4634 0.4899
7.4600 2.4701 0.4873
7.4800 2.4768 0.4638
7.5000 2.4835 0.4885
7.5200 2.4901 0.4762
7.5400 2.4968 0.4676
7.5600 2.5035 0.4940
7.5800 2.5101 0.4718
7.6000 2.5168 0.4634
7.6200 2.5234 0.4875
7.6400 2.5301 0.4793
7.6600 2.5368 0.4676
7.6800 2.5435 0.4842
7.7000 2.5502 0.4756
7.7200 2.5569 0.4704
7.7400 2.5636 0.4864
7.7600 2.5702 0.4693
7.7800 2.5768 0.4757
7.8000 2.5834 0.4859
7.8200 2.5901 0.4761
7.8400 2.5968 0.4697
7.8600 2.6035 0.4850
7.8800 2.6102 0.4710
7.9000 2.6169 0.4683
7.9200 2.6235 0.4828
7.9400 2.6302 0.4767
7.9600 2.6368 0.4696
7.9800 2.6434 0.4808
8.0000 2.6501 0.4735
8.0200 2.6568 0.4691
8.0400 2.6635 0.4792
8.0600 2.6702 0.4775
8.0800 2.6768 0.4666
8.1000 2.6835 0.4845
8.1200 2.6902 0.4757
8.1400 2.6968 0.4613
8.1600 2.7034 0.4808
8.1800 2.7100 0.4796
8.2000 2.7167 0.4664
8.2200 2.7235 0.4781
8.2400 2.7302 0.4754
8.2600 2.7369 0.4693
8.2800 2.7435 0.4773
8.3000 2.7502 0.4680
8.3200 2.7568 0.4760
8.3400 2.7634 0.4840
8.3600 2.7701 0.4653
8.3800 2.7768 0.4695
8.4000 2.7835 0.4824
8.4200 2.7902 0.4651
8.4400 2.7968 0.4710
8.4600 2.8035 0.4744
8.4800 2.8102 0.4712
8.5000 2.8168 0.4725
8.5200 2.8235 0.4695
8.5400 2.8301 0.4737
8.5600 2.8368 0.4752
8.5800 2.8435 0.4640
8.6000 2.8502 0.4796
8.6200 2.8569 0.4735
8.6400 2.8636 0.4661
8.6600 2.8702 0.4761
8.6800 2.8769 0.4714
8.7000 2.8834 0.4641
8.7200 2.8901 0.4789
8.7400 2.8967 0.4691
8.7600 2.9035 0.4582
8.7800 2.9102 0.4807
8.8000 2.9168 0.4659
8.8200 2.9235 0.4632
8.8400 2.9302 0.4763
8.8600 2.9368 0.4622
8.8800 2.9434 0.4681
8.9000 2.9500 0.4779
8.9200 2.9567 0.4627
8.9400 2.9634 0.4682
8.9600 2.9701 0.4732
8.9800 2.9768 0.4615
9.0000 2.9835 0.4656
9.0200 2.9902 0.4715
9.0400 2.9968 0.4586
9.0600 3.0034 0.4722
9.0800 3.0101 0.4639
9.1000 3.0168 0.4588
9.1200 3.0235 0.4710
9.1400 3.0302 0.4618
9.1600 3.0369 0.4615
9.1800 3.0436 0.4727
9.2000 3.0502 0.4571
9.2200 3.0569 0.4603
9.2400 3.0634 0.4682
9.2600 3.0701 0.4622
9.2800 3.0768 0.4621
9.3000 3.0835 0.4644
9.3200 3.0902 0.4615
9.3400 3.0969 0.4635
9.3600 3.1036 0.4630
9.3800 3.1102 0.4576
9.4000 3.1168 0.4663
9.4200 3.1234 0.4578
9.4400 3.1301 0.4618
9.4600 3.1368 0.4665
9.4800 3.1435 0.4587
9.5000 3.1502 0.4593
9.5200 3.1568 0.4678
9.5400 3.1635 0.4587
9.5600 3.1702 0.4594
9.5800 3.1768 0.4632
9.6000 3.1834 0.4614
9.6200 3.1901 0.4621
9.6400 3.1968 0.4673
9.6600 3.2035 0.4566
9.6800 3.2102 0.4622
9.7000 3.2168 0.4689
9.7200 3.2235 0.4560
9.7400 3.2301 0.4609
9.7600 3.2368 0.4691
9.7800 3.2434 0.4605
9.8000 3.2501 0.4567
9.8200 3.2568 0.4675
9.8400 3.2635 0.4626
9.8600 3.2702 0.4558
9.8800 3.2769 0.4623
9.9000 3.2836 0.4675
9.9200 3.2902 0.4539
9.9400 3.2969 0.4631
9.9600 3.3034 0.4656
9.9800 3.3101 0.4564
10.0000 3.3168 0.4697
10.0200 3.3235 0.4595
10.0400 3.3302 0.4545
10.0600 3.3369 0.4759
10.0800 3.3436 0.4478
10.1000 3.3502 0.4570
10.1200 3.3568 0.4809
10.1400 3.3634 0.4466
10.1600 3.3701 0.4587
10.1800 3.3767 0.4838
10.2000 3.3834 0.4400
10.2200 3.3901 0.4671
10.2400 3.3968 0.4861
10.2600 3.4035 0.4315
10.2800 3.4102 0.4690
10.3000 3.4168 0.4791
10.3200 3.4234 0.4259
10.3400 3.4300 0.4784
10.3600 3.4367 0.4760
10.3800 3.4434 0.4245
10.4000 3.4501 0.4786
10.4200 3.4568 0.4672
10.4400 3.4635 0.4357
10.4600 3.4702 0.4804
10.4800 3.4768 0.4579
10.5000 3.4835 0.4355
10.5200 3.4901 0.4880
10.5400 3.4968 0.4523
10.5600 3.5035 0.4453
10.5800 3.5102 0.4783
10.6000 3.5168 0.4514
10.6200 3.5235 0.4498
10.6400 3.5302 0.4750
10.6600 3.5369 0.4460
10.6800 3.5435 0.4570
10.7000 3.5501 0.4697
10.7200 3.5568 0.4510
10.7400 3.5635 0.4547
10.7600 3.5702 0.4634
10.7800 3.5768 0.4534
10.8000 3.5835 0.4591
10.8200 3.5902 0.4565
10.8400 3.5969 0.4530
10.8600 3.6035 0.4598
10.8800 3.6101 0.4567
10.9000 3.6168 0.4575
10.9200 3.6235 0.4631
10.9400 3.6302 0.4535
10.9600 3.6369 0.4565
10.9800 3.6435 0.4613
11.0000 3.6502 0.4481
11.0200 3.6568 0.4600
11.0400 3.6635 0.4559
11.0600 3.6701 0.4504
11.0800 3.6767 0.4629
11.1000 3.6834 0.4535
11.1200 3.6901 0.4476
11.1400 3.6968 0.4631
11.1600 3.7035 0.4519
11.1800 3.7101 0.4508
11.2000 3.7168 0.4599
11.2200 3.7234 0.4470
11.2400 3.7301 0.4507
11.2600 3.7368 0.4635
11.2800 3.7435 0.4444
11.3000 3.7502 0.4532
11.3200 3.7569 0.4596
11.3400 3.7636 0.4465
11.3600 3.7703 0.4529
11.3800 3.7769 0.4583
11.4000 3.7835 0.4462
11.4200 3.7901 0.4571
11.4400 3.7968 0.4589
11.4600 3.8035 0.4395
11.4800 3.8102 0.4586
11.5000 3.8169 0.4554
11.5200 3.8236 0.4425
11.5400 3.8302 0.4620
11.5600 3.8369 0.4520
11.5800 3.8435 0.4414
11.6000 3.8501 0.4599
11.6200 3.8567 0.4472
11.6400 3.8634 0.4515
11.6600 3.8701 0.4614
11.6800 3.8768 0.4465
11.7000 3.8835 0.4486
11.7200 3.8902 0.4606
11.7400 3.8968 0.4409
11.7600 3.9035 0.4509
11.7800 3.9100 0.4601
11.8000 3.9167 0.4391
11.8200 3.9234 0.4506
11.8400 3.9301 0.4568
11.8600 3.9368 0.4382
11.8800 3.9435 0.4545
11.9000 3.9502 0.4484
11.9200 3.9568 0.4396
11.9400 3.9635 0.4564
11.9600 3.9701 0.4482
11.9800 3.9768 0.4395
12.0000 3.9835 0.4584
12.0200 3.9902 0.4483
12.0400 3.9969 0.4387
12.0600 4.0035 0.4638
12.0800 4.0102 0.4432
12.1000 4.0169 0.4395
12.1200 4.0235 0.4619
12.1400 4.0301 0.4428
12.1600 4.0368 0.4381
12.1800 4.0435 0.4634
12.2000 4.0502 0.4405
12.2200 4.0569 0.4436
12.2400 4.0636 0.4571
12.2600 4.0702 0.4446
12.2800 4.0769 0.4437
12.3000 4.0835 0.4595
12.3200 4.0901 0.4325
12.3400 4.0967 0.4498
12.3600 4.1034 0.4571
12.3800 4.1101 0.4341
12.4000 4.1168 0.4485
12.4200 4.1235 0.4550
12.4400 4.1302 0.4367
12.4600 4.1368 0.4498
12.4800 4.1434 0.4525
12.5000 4.1500 0.4397
12.5200 4.1567 0.4506
12.5400 4.1634 0.4475
12.5600 4.1701 0.4389
12.5800 4.1768 0.4497
12.6000 4.1835 0.4475
12.6200 4.1902 0.4395
12.6400 4.1969 0.4481
12.6600 4.2035 0.4505
12.6800 4.2101 0.4398
12.7000 4.2168 0.4441
12.7200 4.2235 0.4542
12.7400 4.2302 0.4395
12.7600 4.2368 0.4470
12.7800 4.2435 0.4510
12.8000 4.2502 0.4407
12.8200 4.2569 0.4454
12.8400 4.2635 0.4530
12.8600 4.2701 0.4381
12.8800 4.2768 0.4478
12.9000 4.2835 0.4544
12.9200 4.2902 0.4388
12.9400 4.2969 0.4428
12.9600 4.3036 0.4517
12.9800 4.3102 0.4410
13.0000 4.3169 0.4459
13.0200 4.3235 0.4465
13.0400 4.3301 0.4387
13.0600 4.3368 0.4504
13.0800 4.3435 0.4483
13.1000 4.3502 0.4421
13.1200 4.3569 0.4422
13.1400 4.3635 0.4521
13.1600 4.3702 0.4420
13.1800 4.3769 0.4434
13.2000 4.3835 0.4474
13.2200 4.3901 0.4458
13.2400 4.3967 0.4385
13.2600 4.4034 0.4461
13.2800 4.4101 0.4453
13.3000 4.4168 0.4407
13.3200 4.4235 0.4462
13.3400 4.4302 0.4503
13.3600 4.4369 0.4332
13.3800 4.4435 0.4461
13.4000 4.4501 0.4466
13.4200 4.4567 0.4392
13.4400 4.4634 0.4479
13.4600 4.4702 0.4419
13.4800 4.4769 0.4333
13.5000 4.4836 0.4464
13.5200 4.4902 0.4442
13.5400 4.4969 0.4328
13.5600 4.5035 0.4484
13.5800 4.5101 0.4384
13.6000 4.5168 0.4338
13.6200 4.5235 0.4512
13.6400 4.5302 0.4424
13.6600 4.5369 0.4314
13.6800 4.5435 0.4502
13.7000 4.5502 0.4387
13.7200 4.5568 0.4330
13.7400 4.5635 0.4454
13.7600 4.5701 0.4409
13.7800 4.5767 0.4336
13.8000 4.5834 0.4457
13.8200 4.5901 0.4347
13.8400 4.5968 0.4382
13.8600 4.6035 0.4453
13.8800 4.6102 0.4391
13.9000 4.6169 0.4386
13.9200 4.6235 0.4459
13.9400 4.6301 0.4353
13.9600 4.6367 0.4396
13.9800 4.6434 0.4439
14.0000 4.6501 0.4366
14.0200 4.6568 0.4370
14.0400 4.6635 0.4421
14.0600 4.6701 0.4384
14.0800 4.6768 0.4424
14.1000 4.6834 0.4350
14.1200 4.6901 0.4396
14.1400 4.6967 0.4463
14.1600 4.7035 0.4303
14.1800 4.7102 0.4418
14.2000 4.7169 0.4434
14.2200 4.7235 0.4329
14.2400 4.7302 0.4401
14.2600 4.7369 0.4400
14.2800 4.7435 0.4314
14.3000 4.7501 0.4417
14.3200 4.7568 0.4352
14.3400 4.7634 0.4358
14.3600 4.7701 0.4458
14.3800 4.7769 0.4299
14.4000 4.7836 0.4313
14.4200 4.7903 0.4485
14.4400 4.7969 0.4285
14.4600 4.8035 0.4357
14.4800 4.8101 0.4449
14.5000 4.8167 0.4272
14.5200 4.8234 0.4365
14.5400 4.8301 0.4480
14.5600 4.8368 0.4249
14.5800 4.8435 0.4410
14.6000 4.8501 0.4415
14.6200 4.8568 0.4245
14.6400 4.8635 0.4367
14.6600 4.8701 0.4451
14.6800 4.8767 0.4240
14.7000 4.8834 0.4348
14.7200 4.8901 0.4420
14.7400 4.8968 0.4303
14.7600 4.9035 0.4398
14.7800 4.9101 0.4361
14.8000 4.9168 0.4310
14.8200 4.9235 0.4299
14.8400 4.9301 0.4387
14.8600 4.9368 0.4319
14.8800 4.9434 0.4340
14.9000 4.9501 0.4361
14.9200 4.9568 0.4369
14.9400 4.9635 0.4339
14.9600 4.9702 0.4387
14.9800 4.9769 0.4313
15.0000 4.9835 0.4270
15.0200 4.9901 0.4392
15.0400 4.9967 0.4381
15.0600 5.0034 0.4273
15.0800 5.0102 0.4399
15.1000 5.0169 0.4308
15.1200 5.0236 0.4267
15.1400 5.0302 0.4384
15.1600 5.0369 0.4323
15.1800 5.0435 0.4265
15.2000 5.0501 0.4394
15.2200 5.0568 0.4352
15.2400 5.0634 0.4230
15.2600 5.0701 0.4396
15.2800 5.0768 0.4298
15.3000 5.0835 0.4236
15.3200 5.0902 0.4432
15.3400 5.0969 0.4311
15.3600 5.1035 0.4181
15.3800 5.1101 0.4419
15.4000 5.1167 0.4298
15.4200 5.1234 0.4257
15.4400 5.1301 0.4371
15.4600 5.1368 0.4234
15.4800 5.1435 0.4207
15.5000 5.1502 0.4414
15.5200 5.1568 0.4232
15.5400 5.1635 0.4234
15.5600 5.1701 0.4389
15.5800 5.1767 0.4176
15.6000 5.1834 0.4255
15.6200 5.1902 0.4403
15.6400 5.1969 0.4185
15.6600 5.2035 0.4242
15.6800 5.2102 0.4337
15.7000 5.2168 0.4195
15.7200 5.2235 0.4236
15.7400 5.2302 0.4343
15.7600 5.2368 0.4186
15.7800 5.2435 0.4254
15.8000 5.2502 0.4277
15.8200 5.2569 0.4162
15.8400 5.2636 0.4328
15.8600 5.2702 0.4258
15.8800 5.2769 0.4191
15.9000 5.2836 0.4250
15.9200 5.2901 0.4236
15.9400 5.2967 0.4206
15.9600 5.3034 0.4275
15.9800 5.3101 0.4229
16.0000 5.3168 0.4224
16.0200 5.3235 0.4239
16.0400 5.3302 0.4249
16.0600 5.3369 0.4248
16.0800 5.3435 0.4215
16.1000 5.3501 0.4218
16.1200 5.3567 0.4258
16.1400 5.3634 0.4211
16.1600 5.3701 0.4210
16.1800 5.3768 0.4258
16.2000 5.3835 0.4186
16.2200 5.3901 0.4278
16.2400 5.3968 0.4225
16.2600 5.4035 0.4148
16.2800 5.4102 0.4265
16.3000 5.4168 0.4236
16.3200 5.4234 0.4132
16.3400 5.4301 0.4269
16.3600 5.4368 0.4212
16.3800 5.4435 0.4120
16.4000 5.4502 0.4293
16.4200 5.4569 0.4262
16.4400 5.4636 0.4100
16.4600 5.4701 0.4291
16.4800 5.4767 0.4196
16.5000 5.4833 0.4158
16.5200 5.4901 0.4300
16.5400 5.4968 0.4193
16.5600 5.5035 0.4144
16.5800 5.5102 0.4315
16.6000 5.5169 0.4152
16.6200 5.5236 0.4175
16.6400 5.5301 0.4308
16.6600 5.5367 0.4165
16.6800 5.5434 0.4163
16.7000 5.5501 0.4291
16.7200 5.5568 0.4192
16.7400 5.5635 0.4199
16.7600 5.5702 0.4250
16.7800 5.5768 0.4156
16.8000 5.5835 0.4199
16.8200 5.5902 0.4284
16.8400 5.5968 0.4178
16.8600 5.6034 0.4176
16.8800 5.6101 0.4288
16.9000 5.6168 0.4188
16.9200 5.6235 0.4245
16.9400 5.6302 0.4233
16.9600 5.6369 0.4187
16.9800 5.6436 0.4175
17.0000 5.6502 0.4218
17.0200 5.6568 0.4221
17.0400 5.6634 0.4241
17.0600 5.6701 0.4164
17.0800 5.6769 0.4217
17.1000 5.6836 0.4211
17.1200 5.6902 0.4237
17.1400 5.6969 0.4247
17.1600 5.7035 0.4149
17.1800 5.7101 0.4190
17.2000 5.7168 0.4281
17.2200 5.7234 0.4147
17.2400 5.7301 0.4186
17.2600 5.7369 0.4246
17.2800 5.7435 0.4124
17.3000 5.7502 0.4192
17.3200 5.7568 0.4276
17.3400 5.7635 0.4123
17.3600 5.7702 0.4202
17.3800 5.7768 0.4251
17.4000 5.7834 0.4110
17.4200 5.7901 0.4243
17.4400 5.7968 0.4209
17.4600 5.8035 0.4097
17.4800 5.8102 0.4216
17.5000 5.8169 0.4222
17.5200 5.8236 0.4111
17.5400 5.8301 0.4223
17.5600 5.8367 0.4197
17.5800 5.8434 0.4161
17.6000 5.8501 0.4205
17.6200 5.8568 0.4214
17.6400 5.8635 0.4084
17.6600 5.8701 0.4222
17.6800 5.8768 0.4220
17.7000 5.8835 0.4081
17.7200 5.8901 0.4179
17.7400 5.8968 0.4204
