Raw Data
Time Displacement Force
(s) (mm) (N)
0.0000 0.0000 -0.1251
0.0200 0.0000 -0.1203
0.0400 0.0008 -0.0748
0.0600 0.0039 -0.0081
0.0800 0.0094 -0.0094
0.1000 0.0151 -0.0120
0.1200 0.0210 0.0180
0.1400 0.0276 -0.0027
0.1600 0.0350 -0.0091
0.1800 0.0425 0.0091
0.2000 0.0496 0.0101
0.2200 0.0565 0.0253
0.2400 0.0632 0.0497
0.2600 0.0698 0.0652
0.2800 0.0765 0.0964
0.3000 0.0832 0.1222
0.3200 0.0899 0.1399
0.3400 0.0967 0.1753
0.3600 0.1034 0.1895
0.3800 0.1100 0.2034
0.4000 0.1167 0.2203
0.4200 0.1234 0.2117
0.4400 0.1300 0.2092
0.4600 0.1367 0.2141
0.4800 0.1434 0.2063
0.5000 0.1501 0.2125
0.5200 0.1567 0.2250
0.5400 0.1634 0.2319
0.5600 0.1700 0.2584
0.5800 0.1766 0.2951
0.6000 0.1833 0.3134
0.6200 0.1900 0.3452
0.6400 0.1967 0.3693
0.6600 0.2034 0.3787
0.6800 0.2100 0.3928
0.7000 0.2167 0.3863
0.7200 0.2234 0.3830
0.7400 0.2300 0.3972
0.7600 0.2366 0.3949
0.7800 0.2433 0.3885
0.8000 0.2500 0.3961
0.8200 0.2566 0.3978
0.8400 0.2633 0.3938
0.8600 0.2700 0.3962
0.8800 0.2767 0.3995
0.9000 0.2833 0.3981
0.9200 0.2899 0.3948
0.9400 0.2966 0.4005
0.9600 0.3032 0.4012
0.9800 0.3100 0.3990
1.0000 0.3166 0.4023
1.0200 0.3233 0.4008
1.0400 0.3300 0.3957
1.0600 0.3367 0.4007
1.0800 0.3433 0.4064
1.1000 0.3499 0.3992
1.1200 0.3566 0.4064
1.1400 0.3633 0.4023
1.1600 0.3700 0.3981
1.1800 0.3767 0.4090
1.2000 0.3834 0.4050
1.2200 0.3901 0.4017
1.2400 0.3967 0.4101
1.2600 0.4034 0.4040
1.2800 0.4100 0.3999
1.3000 0.4167 0.4171
1.3200 0.4233 0.4050
1.3400 0.4300 0.3903
1.3600 0.4367 0.4181
1.3800 0.4434 0.4070
1.4000 0.4501 0.3916
1.4200 0.4567 0.4145
1.4400 0.4634 0.4042
1.4600 0.4700 0.3969
1.4800 0.4766 0.4213
1.5000 0.4833 0.4022
1.5200 0.4900 0.3967
1.5400 0.4967 0.4209
1.5600 0.5033 0.3999
1.5800 0.5100 0.3959
1.6000 0.5167 0.4171
1.6200 0.5233 0.4038
1.6400 0.5299 0.3995
1.6600 0.5366 0.4190
1.6800 0.5433 0.4024
1.7000 0.5500 0.4061
1.7200 0.5567 0.4174
1.7400 0.5633 0.4000
1.7600 0.5700 0.4080
1.7800 0.5767 0.4211
1.8000 0.5833 0.4007
1.8200 0.5900 0.4066
1.8400 0.5966 0.4194
1.8600 0.6033 0.4123
1.8800 0.6100 0.4089
1.9000 0.6167 0.4206
1.9200 0.6234 0.4110
1.9400 0.6300 0.4152
1.9600 0.6367 0.4151
1.9800 0.6434 0.4108
2.0000 0.6500 0.4148
2.0200 0.6566 0.4177
2.0400 0.6633 0.4182
2.0600 0.6700 0.4094
2.0800 0.6767 0.4176
2.1000 0.6834 0.4188
2.1200 0.6900 0.4095
2.1400 0.6967 0.4221
2.1600 0.7034 0.4218
2.1800 0.7100 0.4105
2.2000 0.7166 0.4231
2.2200 0.7233 0.4201
2.2400 0.7300 0.4116
2.2600 0.7367 0.4240
2.2800 0.7433 0.4189
2.3000 0.7500 0.4114
2.3200 0.7567 0.4245
2.3400 0.7634 0.4146
2.3600 0.7700 0.4070
2.3800 0.7766 0.4272
2.4000 0.7833 0.4141
2.4200 0.7899 0.4091
2.4400 0.7966 0.4264
2.4600 0.8033 0.4118
2.4800 0.8100 0.4119
2.5000 0.8167 0.4286
2.5200 0.8234 0.4077
2.5400 0.8300 0.4115
2.5600 0.8366 0.4290
2.5800 0.8433 0.4129
2.6000 0.8500 0.4160
2.6200 0.8567 0.4245
2.6400 0.8634 0.4097
2.6600 0.8701 0.4168
2.6800 0.8767 0.4191
2.7000 0.8834 0.4094
2.7200 0.8900 0.4160
2.7400 0.8966 0.4213
2.7600 0.9033 0.4131
2.7800 0.9100 0.4155
2.8000 0.9167 0.4211
2.8200 0.9234 0.4120
2.8400 0.9301 0.4179
2.8600 0.9367 0.4172
2.8800 0.9434 0.4121
2.9000 0.9500 0.4170
2.9200 0.9566 0.4151
2.9400 0.9632 0.4154
2.9600 0.9699 0.4191
2.9800 0.9767 0.4136
3.0000 0.9834 0.4188
3.0200 0.9900 0.4114
3.0400 0.9967 0.4166
3.0600 1.0034 0.4205
3.0800 1.0100 0.4131
3.1000 1.0166 0.4179
3.1200 1.0232 0.4173
3.1400 1.0299 0.4118
3.1600 1.0366 0.4164
3.1800 1.0433 0.4210
3.2000 1.0500 0.4123
3.2200 1.0567 0.4170
3.2400 1.0634 0.4159
3.2600 1.0700 0.4118
3.2800 1.0766 0.4201
3.3000 1.0833 0.4176
3.3200 1.0900 0.4100
3.3400 1.0967 0.4193
3.3600 1.1034 0.4145
3.3800 1.1101 0.4160
3.4000 1.1168 0.4165
3.4200 1.1235 0.4121
3.4400 1.1301 0.4165
3.4600 1.1367 0.4188
3.4800 1.1433 0.4108
3.5000 1.1500 0.4120
3.5200 1.1567 0.4197
3.5400 1.1634 0.4109
3.5600 1.1701 0.4134
3.5800 1.1767 0.4160
3.6000 1.1834 0.4173
3.6200 1.1900 0.4107
3.6400 1.1966 0.4134
3.6600 1.2033 0.4175
3.6800 1.2100 0.4124
3.7000 1.2167 0.4127
3.7200 1.2234 0.4106
3.7400 1.2300 0.4167
3.7600 1.2367 0.4205
3.7800 1.2434 0.4133
3.8000 1.2500 0.4146
3.8200 1.2566 0.4180
3.8400 1.2633 0.4130
3.8600 1.2700 0.4180
3.8800 1.2767 0.4158
3.9000 1.2833 0.4159
3.9200 1.2900 0.4187
3.9400 1.2967 0.4119
3.9600 1.3034 0.4137
3.9800 1.3100 0.4190
4.0000 1.3166 0.4109
4.0200 1.3233 0.4158
4.0400 1.3300 0.4195
4.0600 1.3367 0.4070
4.0800 1.3434 0.4163
4.1000 1.3500 0.4205
4.1200 1.3567 0.4110
4.1400 1.3634 0.4145
4.1600 1.3700 0.4198
4.1800 1.3766 0.4113
4.2000 1.3833 0.4137
4.2200 1.3900 0.4166
4.2400 1.3967 0.4119
4.2600 1.4034 0.4135
4.2800 1.4101 0.4140
4.3000 1.4167 0.4120
4.3200 1.4234 0.4172
4.3400 1.4300 0.4136
4.3600 1.4366 0.4136
4.3800 1.4433 0.4231
4.4000 1.4500 0.4113
4.4200 1.4567 0.4092
4.4400 1.4633 0.4193
4.4600 1.4700 0.4174
4.4800 1.4767 0.4087
4.5000 1.4834 0.4189
4.5200 1.4900 0.4116
4.5400 1.4966 0.4128
4.5600 1.5033 0.4185
4.5800 1.5099 0.4131
4.6000 1.5167 0.4161
4.6200 1.5233 0.4195
4.6400 1.5300 0.4120
4.6600 1.5367 0.4104
4.6800 1.5434 0.4185
4.7000 1.5500 0.4099
4.7200 1.5566 0.4083
4.7400 1.5633 0.4209
4.7600 1.5700 0.4135
4.7800 1.5767 0.4090
4.8000 1.5834 0.4164
4.8200 1.5901 0.4167
4.8400 1.5968 0.4110
4.8600 1.6034 0.4153
4.8800 1.6100 0.4186
4.9000 1.6166 0.4132
4.9200 1.6232 0.4168
4.9400 1.6299 0.4150
4.9600 1.6366 0.4133
4.9800 1.6433 0.4148
5.0000 1.6500 0.4162
5.0200 1.6567 0.4107
5.0400 1.6634 0.4118
5.0600 1.6700 0.4100
5.0800 1.6766 0.4120
5.1000 1.6832 0.4143
5.1200 1.6899 0.4112
5.1400 1.6966 0.4112
5.1600 1.7033 0.4139
5.1800 1.7100 0.4086
5.2000 1.7167 0.4098
5.2200 1.7234 0.4137
5.2400 1.7300 0.4129
5.2600 1.7366 0.4142
5.2800 1.7432 0.4112
5.3000 1.7499 0.4163
5.3200 1.7566 0.4067
5.3400 1.7633 0.4122
5.3600 1.7700 0.4175
5.3800 1.7767 0.4058
5.4000 1.7833 0.4127
5.4200 1.7900 0.4151
5.4400 1.7966 0.4059
5.4600 1.8032 0.4152
5.4800 1.8099 0.4212
5.5000 1.8167 0.4040
5.5200 1.8234 0.4136
5.5400 1.8301 0.4186
5.5600 1.8368 0.4014
5.5800 1.8435 0.4146
5.6000 1.8501 0.4213
5.6200 1.8567 0.4043
5.6400 1.8633 0.4191
5.6600 1.8700 0.4147
5.6800 1.8767 0.4034
5.7000 1.8834 0.4173
5.7200 1.8900 0.4145
5.7400 1.8967 0.4052
5.7600 1.9034 0.4126
5.7800 1.9100 0.4150
5.8000 1.9166 0.4043
5.8200 1.9232 0.4183
5.8400 1.9299 0.4177
5.8600 1.9366 0.4003
5.8800 1.9433 0.4166
5.9000 1.9500 0.4203
5.9200 1.9566 0.4016
5.9400 1.9633 0.4163
5.9600 1.9700 0.4162
5.9800 1.9766 0.4083
6.0000 1.9832 0.4158
6.0200 1.9899 0.4146
6.0400 1.9966 0.4100
6.0600 2.0033 0.4156
6.0800 2.0100 0.4180
6.1000 2.0167 0.4035
6.1200 2.0234 0.4149
6.1400 2.0301 0.4177
6.1600 2.0367 0.4029
6.1800 2.0433 0.4151
6.2000 2.0499 0.4211
6.2200 2.0566 0.4006
6.2400 2.0633 0.4161
6.2600 2.0700 0.4191
6.2800 2.0767 0.4055
6.3000 2.0834 0.4161
6.3200 2.0901 0.4162
6.3400 2.0967 0.4060
6.3600 2.1033 0.4191
6.3800 2.1100 0.4165
6.4000 2.1167 0.4052
6.4200 2.1234 0.4144
6.4400 2.1300 0.4163
6.4600 2.1367 0.4072
6.4800 2.1434 0.4152
6.5000 2.1501 0.4152
6.5200 2.1567 0.4068
6.5400 2.1633 0.4151
6.5600 2.1700 0.4135
6.5800 2.1766 0.4062
6.6000 2.1833 0.4150
6.6200 2.1900 0.4113
6.6400 2.1967 0.4064
6.6600 2.2034 0.4115
6.6800 2.2101 0.4090
6.7000 2.2166 0.4118
6.7200 2.2232 0.4125
6.7400 2.2299 0.4132
6.7600 2.2366 0.4110
6.7800 2.2433 0.4064
6.8000 2.2500 0.4112
6.8200 2.2567 0.4075
6.8400 2.2634 0.4095
6.8600 2.2700 0.4129
6.8800 2.2766 0.4152
6.9000 2.2833 0.4057
6.9200 2.2899 0.4145
6.9400 2.2967 0.4102
6.9600 2.3034 0.4035
6.9800 2.3100 0.4158
7.0000 2.3167 0.4065
7.0200 2.3234 0.4064
7.0400 2.3300 0.4148
7.0600 2.3367 0.4065
7.0800 2.3433 0.4093
7.1000 2.3500 0.4157
7.1200 2.3567 0.4051
7.1400 2.3634 0.4072
7.1600 2.3700 0.4162
7.1800 2.3767 0.4068
7.2000 2.3834 0.4046
7.2200 2.3901 0.4143
7.2400 2.3967 0.4002
7.2600 2.4033 0.4129
7.2800 2.4099 0.4123
7.3000 2.4167 0.4048
7.3200 2.4234 0.4124
7.3400 2.4300 0.4115
7.3600 2.4367 0.4080
7.3800 2.4434 0.4093
7.4000 2.4500 0.4095
7.4200 2.4566 0.4097
7.4400 2.4633 0.4060
7.4600 2.4699 0.4123
7.4800 2.4766 0.4104
7.5000 2.4833 0.4064
7.5200 2.4900 0.4075
7.5400 2.4967 0.4109
7.5600 2.5033 0.4053
7.5800 2.5100 0.4070
7.6000 2.5167 0.4142
7.6200 2.5233 0.4042
7.6400 2.5300 0.4089
7.6600 2.5367 0.4085
7.6800 2.5434 0.4039
7.7000 2.5501 0.4106
7.7200 2.5567 0.4140
7.7400 2.5634 0.4034
7.7600 2.5701 0.4065
7.7800 2.5767 0.4124
7.8000 2.5833 0.4056
7.8200 2.5899 0.4097
7.8400 2.5966 0.4100
7.8600 2.6033 0.4031
7.8800 2.6100 0.4091
7.9000 2.6167 0.4062
7.9200 2.6234 0.4041
7.9400 2.6301 0.4122
7.9600 2.6367 0.4058
7.9800 2.6433 0.4003
8.0000 2.6500 0.4118
8.0200 2.6566 0.4084
8.0400 2.6633 0.4010
8.0600 2.6700 0.4094
8.0800 2.6767 0.4045
8.1000 2.6834 0.4011
8.1200 2.6900 0.4051
8.1400 2.6967 0.4035
8.1600 2.7033 0.4100
8.1800 2.7099 0.4072
8.2000 2.7166 0.4006
8.2200 2.7233 0.4076
8.2400 2.7300 0.4080
8.2600 2.7367 0.4011
8.2800 2.7434 0.4050
8.3000 2.7501 0.4057
8.3200 2.7567 0.4032
8.3400 2.7633 0.4045
8.3600 2.7699 0.4070
8.3800 2.7766 0.4041
8.4000 2.7833 0.4059
8.4200 2.7900 0.4045
8.4400 2.7967 0.3981
8.4600 2.8034 0.4053
8.4800 2.8101 0.4025
8.5000 2.8167 0.4011
8.5200 2.8233 0.4068
8.5400 2.8300 0.3984
8.5600 2.8367 0.4069
8.5800 2.8434 0.4063
8.6000 2.8500 0.4016
8.6200 2.8567 0.4077
8.6400 2.8634 0.4051
8.6600 2.8701 0.4006
8.6800 2.8767 0.4036
8.7000 2.8833 0.4089
8.7200 2.8899 0.4003
8.7400 2.8966 0.4070
8.7600 2.9033 0.4037
8.7800 2.9100 0.3949
8.8000 2.9167 0.4091
8.8200 2.9234 0.4048
8.8400 2.9300 0.3950
8.8600 2.9366 0.4045
8.8800 2.9432 0.4088
8.9000 2.9499 0.3994
8.9200 2.9566 0.4007
8.9400 2.9633 0.4015
8.9600 2.9700 0.3995
8.9800 2.9766 0.4068
9.0000 2.9833 0.4012
9.0200 2.9900 0.3978
9.0400 2.9967 0.4087
9.0600 3.0033 0.3989
9.0800 3.0099 0.3986
9.1000 3.0166 0.4076
9.1200 3.0233 0.4049
9.1400 3.0300 0.3944
9.1600 3.0367 0.4039
9.1800 3.0434 0.4055
9.2000 3.0501 0.3953
9.2200 3.0567 0.4079
9.2400 3.0633 0.4029
9.2600 3.0699 0.3925
9.2800 3.0766 0.4118
9.3000 3.0834 0.3996
9.3200 3.0901 0.3874
9.3400 3.0967 0.4076
9.3600 3.1034 0.4048
9.3800 3.1101 0.3909
9.4000 3.1167 0.4074
9.4200 3.1233 0.4066
9.4400 3.1299 0.3915
9.4600 3.1366 0.4085
9.4800 3.1433 0.3979
9.5000 3.1500 0.3900
9.5200 3.1567 0.4117
9.5400 3.1634 0.3936
9.5600 3.1701 0.3874
9.5800 3.1767 0.4173
9.6000 3.1833 0.3973
9.6200 3.1899 0.3876
9.6400 3.1966 0.4171
9.6600 3.2033 0.3951
9.6800 3.2100 0.3924
9.7000 3.2167 0.4146
9.7200 3.2233 0.3917
9.7400 3.2300 0.3914
9.7600 3.2366 0.4111
9.7800 3.2432 0.3934
9.8000 3.2499 0.3970
9.8200 3.2566 0.4119
9.8400 3.2633 0.3924
9.8600 3.2701 0.3945
9.8800 3.2767 0.4091
9.9000 3.2834 0.3981
9.9200 3.2901 0.3968
9.9400 3.2967 0.4017
9.9600 3.3033 0.3973
9.9800 3.3099 0.4030
10.0000 3.3167 0.4058
10.0200 3.3234 0.4011
10.0400 3.3301 0.3988
10.0600 3.3368 0.4058
10.0800 3.3434 0.3968
10.1000 3.3501 0.3996
10.1200 3.3567 0.4067
10.1400 3.3633 0.3991
10.1600 3.3699 0.3976
10.1800 3.3766 0.4008
10.2000 3.3833 0.3999
10.2200 3.3900 0.3982
10.2400 3.3967 0.3998
10.2600 3.4033 0.3991
10.2800 3.4100 0.3949
10.3000 3.4167 0.4044
10.3200 3.4233 0.3989
10.3400 3.4299 0.3978
10.3600 3.4366 0.4078
10.3800 3.4433 0.3939
10.4000 3.4500 0.3982
10.4200 3.4567 0.4049
10.4400 3.4634 0.3972
10.4600 3.4700 0.3975
10.4800 3.4767 0.4043
10.5000 3.4833 0.3941
10.5200 3.4900 0.3968
10.5400 3.4966 0.4039
10.5600 3.5034 0.3962
10.5800 3.5100 0.3961
10.6000 3.5167 0.3992
10.6200 3.5234 0.3958
10.6400 3.5301 0.3994
10.6600 3.5367 0.3983
10.6800 3.5433 0.3932
10.7000 3.5499 0.3975
10.7200 3.5566 0.3957
10.7400 3.5633 0.3932
10.7600 3.5700 0.3963
10.7800 3.5767 0.3960
10.8000 3.5834 0.3932
10.8200 3.5901 0.3973
10.8400 3.5967 0.3931
10.8600 3.6033 0.3974
10.8800 3.6099 0.3985
10.9000 3.6166 0.3909
10.9200 3.6233 0.3984
10.9400 3.6300 0.3939
10.9600 3.6367 0.3951
10.9800 3.6434 0.4009
11.0000 3.6501 0.3881
11.0200 3.6567 0.3919
11.0400 3.6633 0.4010
11.0600 3.6699 0.3890
11.0800 3.6766 0.3897
11.1000 3.6833 0.4009
11.1200 3.6899 0.3861
11.1400 3.6966 0.3906
11.1600 3.7033 0.4025
11.1800 3.7100 0.3804
11.2000 3.7167 0.3932
11.2200 3.7233 0.3989
11.2400 3.7299 0.3819
11.2600 3.7366 0.4001
11.2800 3.7433 0.3937
11.3000 3.7501 0.3833
11.3200 3.7567 0.3979
11.3400 3.7634 0.3943
11.3600 3.7701 0.3876
11.3800 3.7768 0.3952
11.4000 3.7834 0.3922
11.4200 3.7900 0.3885
11.4400 3.7966 0.3980
11.4600 3.8033 0.3889
11.4800 3.8101 0.3858
11.5000 3.8168 0.3972
11.5200 3.8234 0.3850
11.5400 3.8301 0.3902
11.5600 3.8367 0.3952
11.5800 3.8433 0.3853
11.6000 3.8499 0.3920
11.6200 3.8566 0.3936
11.6400 3.8633 0.3883
11.6600 3.8700 0.3926
11.6800 3.8766 0.3883
11.7000 3.8833 0.3896
11.7200 3.8900 0.3910
11.7400 3.8967 0.3839
11.7600 3.9033 0.3878
11.7800 3.9099 0.3955
11.8000 3.9165 0.3865
11.8200 3.9233 0.3858
11.8400 3.9300 0.3936
11.8600 3.9366 0.3836
11.8800 3.9433 0.3900
11.9000 3.9500 0.3911
11.9200 3.9566 0.3834
11.9400 3.9632 0.3915
11.9600 3.9699 0.3960
11.9800 3.9766 0.3804
12.0000 3.9834 0.3848
12.0200 3.9901 0.3947
12.0400 3.9968 0.3857
12.0600 4.0034 0.3868
12.0800 4.0101 0.3942
12.1000 4.0167 0.3813
12.1200 4.0234 0.3877
12.1400 4.0300 0.3943
12.1600 4.0367 0.3832
12.1800 4.0433 0.3889
12.2000 4.0500 0.3866
12.2200 4.0567 0.3836
12.2400 4.0634 0.3865
12.2600 4.0701 0.3937
12.2800 4.0768 0.3810
12.3000 4.0834 0.3839
12.3200 4.0899 0.3921
12.3400 4.0966 0.3852
12.3600 4.1033 0.3904
12.3800 4.1100 0.3879
12.4000 4.1167 0.3856
12.4200 4.1234 0.3910
12.4400 4.1301 0.3921
12.4600 4.1367 0.3827
12.4800 4.1433 0.3925
12.5000 4.1499 0.3943
12.5200 4.1566 0.3826
12.5400 4.1633 0.3888
12.5600 4.1700 0.3936
12.5800 4.1767 0.3860
12.6000 4.1833 0.3874
12.6200 4.1900 0.3948
12.6400 4.1967 0.3858
12.6600 4.2034 0.3839
12.6800 4.2100 0.3960
12.7000 4.2166 0.3891
12.7200 4.2233 0.3840
12.7400 4.2300 0.3961
12.7600 4.2366 0.3838
12.7800 4.2434 0.3902
12.8000 4.2501 0.3945
12.8200 4.2568 0.3818
12.8400 4.2634 0.3910
12.8600 4.2700 0.3962
12.8800 4.2766 0.3816
12.9000 4.2833 0.3905
12.9200 4.2900 0.3974
12.9400 4.2967 0.3837
12.9600 4.3034 0.3859
12.9800 4.3101 0.3906
13.0000 4.3167 0.3839
13.0200 4.3234 0.3901
13.0400 4.3300 0.3924
13.0600 4.3366 0.3900
13.0800 4.3433 0.3869
13.1000 4.3501 0.3859
13.1200 4.3567 0.3829
13.1400 4.3634 0.3885
13.1600 4.3701 0.3910
13.1800 4.3767 0.3821
13.2000 4.3834 0.3857
13.2200 4.3899 0.3870
13.2400 4.3966 0.3879
13.2600 4.4032 0.3865
13.2800 4.4099 0.3878
13.3000 4.4166 0.3851
13.3200 4.4233 0.3841
13.3400 4.4301 0.3857
13.3600 4.4367 0.3814
13.3800 4.4434 0.3863
13.4000 4.4499 0.3876
13.4200 4.4566 0.3847
13.4400 4.4633 0.3838
13.4600 4.4700 0.3871
13.4800 4.4767 0.3821
13.5000 4.4834 0.3835
13.5200 4.4901 0.3917
13.5400 4.4967 0.3817
13.5600 4.5034 0.3801
13.5800 4.5100 0.3926
13.6000 4.5166 0.3813
13.6200 4.5233 0.3809
13.6400 4.5301 0.3930
13.6600 4.5367 0.3820
13.6800 4.5434 0.3807
13.7000 4.5500 0.3914
13.7200 4.5567 0.3809
13.7400 4.5633 0.3792
13.7600 4.5700 0.3933
13.7800 4.5766 0.3844
13.8000 4.5833 0.3791
13.8200 4.5900 0.3896
13.8400 4.5967 0.3835
13.8600 4.6034 0.3813
13.8800 4.6101 0.3924
13.9000 4.6167 0.3727
13.9200 4.6234 0.3796
13.9400 4.6299 0.3968
13.9600 4.6366 0.3791
13.9800 4.6432 0.3744
14.0000 4.6500 0.3947
14.0200 4.6567 0.3798
14.0400 4.6634 0.3818
14.0600 4.6700 0.3900
14.0800 4.6767 0.3809
14.1000 4.6833 0.3826
14.1200 4.6899 0.3867
14.1400 4.6966 0.3801
14.1600 4.7033 0.3849
14.1800 4.7100 0.3841
14.2000 4.7167 0.3814
14.2200 4.7234 0.3846
14.2400 4.7301 0.3853
14.2600 4.7368 0.3823
14.2800 4.7434 0.3801
14.3000 4.7500 0.3858
14.3200 4.7566 0.3800
14.3400 4.7632 0.3828
14.3600 4.7699 0.3877
14.3800 4.7767 0.3823
14.4000 4.7834 0.3805
14.4200 4.7901 0.3840
14.4400 4.7968 0.3817
14.4600 4.8034 0.3790
14.4800 4.8100 0.3844
14.5000 4.8166 0.3847
14.5200 4.8233 0.3799
14.5400 4.8300 0.3839
14.5600 4.8366 0.3799
14.5800 4.8433 0.3810
14.6000 4.8500 0.3899
14.6200 4.8567 0.3770
14.6400 4.8633 0.3764
14.6600 4.8699 0.3859
14.6800 4.8766 0.3816
14.7000 4.8833 0.3790
14.7200 4.8900 0.3854
14.7400 4.8966 0.3769
14.7600 4.9033 0.3781
14.7800 4.9100 0.3855
14.8000 4.9167 0.3782
14.8200 4.9234 0.3809
14.8400 4.9300 0.3857
14.8600 4.9366 0.3747
14.8800 4.9433 0.3852
14.9000 4.9500 0.3840
14.9200 4.9567 0.3747
14.9400 4.9634 0.3891
14.9600 4.9701 0.3804
14.9800 4.9768 0.3739
15.0000 4.9834 0.3844
15.0200 4.9900 0.3869
15.0400 4.9966 0.3765
15.0600 5.0033 0.3883
15.0800 5.0100 0.3780
15.1000 5.0167 0.3766
15.1200 5.0234 0.3916
15.1400 5.0300 0.3752
15.1600 5.0367 0.3769
15.1800 5.0433 0.3879
15.2000 5.0500 0.3724
15.2200 5.0566 0.3844
15.2400 5.0633 0.3848
15.2600 5.0700 0.3731
15.2800 5.0767 0.3870
15.3000 5.0834 0.3789
15.3200 5.0901 0.3748
15.3400 5.0968 0.3894
15.3600 5.1034 0.3775
15.3800 5.1100 0.3716
15.4000 5.1166 0.3892
15.4200 5.1232 0.3778
15.4400 5.1299 0.3775
15.4600 5.1366 0.3825
15.4800 5.1433 0.3769
15.5000 5.1500 0.3762
15.5200 5.1567 0.3830
15.5400 5.1633 0.3753
15.5600 5.1700 0.3767
15.5800 5.1766 0.3852
15.6000 5.1833 0.3745
15.6200 5.1900 0.3755
15.6400 5.1967 0.3829
15.6600 5.2034 0.3750
15.6800 5.2101 0.3789
15.7000 5.2167 0.3808
15.7200 5.2234 0.3664
15.7400 5.2300 0.3806
15.7600 5.2367 0.3814
15.7800 5.2433 0.3714
15.8000 5.2500 0.3731
15.8200 5.2567 0.3764
15.8400 5.2634 0.3760
15.8600 5.2701 0.3745
15.8800 5.2768 0.3785
15.9000 5.2834 0.3694
15.9200 5.2900 0.3766
15.9400 5.2965 0.3803
15.9600 5.3032 0.3739
15.9800 5.3099 0.3752
16.0000 5.3167 0.3759
16.0200 5.3234 0.3734
16.0400 5.3301 0.3760
16.0600 5.3367 0.3745
16.0800 5.3434 0.3697
16.1000 5.3500 0.3740
16.1200 5.3566 0.3783
16.1400 5.3633 0.3710
16.1600 5.3700 0.3787
16.1800 5.3767 0.3715
16.2000 5.3834 0.3637
16.2200 5.3900 0.3829
16.2400 5.3967 0.3788
16.2600 5.4034 0.3634
16.2800 5.4100 0.3738
16.3000 5.4167 0.3784
16.3200 5.4233 0.3637
16.3400 5.4300 0.3725
16.3600 5.4367 0.3822
16.3800 5.4434 0.3635
16.4000 5.4501 0.3730
16.4200 5.4568 0.3849
16.4400 5.4634 0.3635
16.4600 5.4700 0.3646
16.4800 5.4766 0.3886
16.5000 5.4833 0.3807
16.5200 5.4900 0.3564
16.5400 5.4967 0.3782
16.5600 5.5034 0.3810
16.5800 5.5101 0.3650
16.6000 5.5167 0.3752
16.6200 5.5234 0.3825
16.6400 5.5300 0.3646
16.6600 5.5366 0.3659
16.6800 5.5433 0.3882
16.7000 5.5500 0.3707
16.7200 5.5566 0.3682
16.7400 5.5633 0.3792
16.7600 5.5699 0.3666
16.7800 5.5766 0.3753
16.8000 5.5833 0.3796
16.8200 5.5900 0.3614
16.8400 5.5967 0.3764
16.8600 5.6033 0.3780
16.8800 5.6100 0.3681
16.9000 5.6167 0.3748
16.9200 5.6233 0.3779
16.9400 5.6300 0.3675
16.9600 5.6367 0.3796
16.9800 5.6434 0.3752
17.0000 5.6500 0.3672
17.0200 5.6566 0.3806
17.0400 5.6633 0.3756
17.0600 5.6700 0.3686
17.0800 5.6767 0.3743
17.1000 5.6834 0.3783
17.1200 5.6901 0.3687
17.1400 5.6967 0.3712
17.1600 5.7034 0.3748
17.1800 5.7100 0.3766
17.2000 5.7166 0.3751
17.2200 5.7233 0.3640
17.2400 5.7300 0.3767
17.2600 5.7367 0.3784
17.2800 5.7434 0.3641
17.3000 5.7501 0.3780
17.3200 5.7567 0.3760
17.3400 5.7634 0.3634
17.3600 5.7700 0.3757
17.3800 5.7766 0.3752
17.4000 5.7833 0.3743
17.4200 5.7899 0.3714
17.4400 5.7966 0.3707
17.4600 5.8033 0.3702
17.4800 5.8100 0.3786
17.5000 5.8167 0.3728
17.5200 5.8234 0.3657
17.5400 5.8300 0.3715
17.5600 5.8365 0.3775
17.5800 5.8431 0.3717
17.6000 5.8499 0.3694
17.6200 5.8566 0.3720
17.6400 5.8634 0.3720
17.6600 5.8700 0.3723
17.6800 5.8767 0.3757
17.7000 5.8834 0.3682
17.7200 5.8900 0.3668
17.7400 5.8966 0.3797
