Raw Data
Time Displacement Force
(s) (mm) (N)
0.0000 0.0000 -0.2079
0.0200 0.0000 -0.2063
0.0400 0.0008 -0.1609
0.0600 0.0040 -0.1137
0.0800 0.0094 -0.1293
0.1000 0.0152 -0.1209
0.1200 0.0211 -0.0902
0.1400 0.0277 -0.0955
0.1600 0.0350 -0.0993
0.1800 0.0425 -0.0801
0.2000 0.0497 -0.0722
0.2200 0.0565 -0.0542
0.2400 0.0632 -0.0192
0.2600 0.0699 -0.0006
0.2800 0.0765 0.0302
0.3000 0.0832 0.0411
0.3200 0.0900 0.0505
0.3400 0.0967 0.0691
0.3600 0.1034 0.0797
0.3800 0.1100 0.0899
0.4000 0.1167 0.1127
0.4200 0.1234 0.1134
0.4400 0.1301 0.1115
0.4600 0.1367 0.1293
0.4800 0.1434 0.1378
0.5000 0.1501 0.1497
0.5200 0.1568 0.1651
0.5400 0.1634 0.1597
0.5600 0.1700 0.1698
0.5800 0.1766 0.1677
0.6000 0.1833 0.1628
0.6200 0.1900 0.1721
0.6400 0.1967 0.1695
0.6600 0.2034 0.1713
0.6800 0.2101 0.1748
0.7000 0.2168 0.1672
0.7200 0.2234 0.1689
0.7400 0.2300 0.1818
0.7600 0.2367 0.1700
0.7800 0.2433 0.1759
0.8000 0.2500 0.1785
0.8200 0.2567 0.1707
0.8400 0.2634 0.1851
0.8600 0.2700 0.1770
0.8800 0.2767 0.1692
0.9000 0.2834 0.1877
0.9200 0.2900 0.1754
0.9400 0.2966 0.1721
0.9600 0.3032 0.1879
0.9800 0.3100 0.1776
1.0000 0.3167 0.1753
1.0200 0.3233 0.1826
1.0400 0.3300 0.1767
1.0600 0.3367 0.1762
1.0800 0.3434 0.1807
1.1000 0.3500 0.1755
1.1200 0.3566 0.1841
1.1400 0.3633 0.1698
1.1600 0.3700 0.1768
1.1800 0.3767 0.1785
1.2000 0.3834 0.1759
1.2200 0.3901 0.1782
1.2400 0.3968 0.1748
1.2600 0.4035 0.1707
1.2800 0.4101 0.1788
1.3000 0.4167 0.1729
1.3200 0.4233 0.1759
1.3400 0.4300 0.1756
1.3600 0.4367 0.1742
1.3800 0.4434 0.1725
1.4000 0.4501 0.1806
1.4200 0.4568 0.1729
1.4400 0.4634 0.1697
1.4600 0.4700 0.1777
1.4800 0.4766 0.1657
1.5000 0.4833 0.1726
1.5200 0.4900 0.1728
1.5400 0.4967 0.1726
1.5600 0.5034 0.1709
1.5800 0.5101 0.1743
1.6000 0.5168 0.1750
1.6200 0.5234 0.1702
1.6400 0.5300 0.1721
1.6600 0.5366 0.1780
1.6800 0.5433 0.1721
1.7000 0.5500 0.1718
1.7200 0.5567 0.1710
1.7400 0.5634 0.1700
1.7600 0.5700 0.1735
1.7800 0.5767 0.1751
1.8000 0.5834 0.1636
1.8200 0.5900 0.1722
1.8400 0.5967 0.1697
1.8600 0.6033 0.1742
1.8800 0.6100 0.1763
1.9000 0.6167 0.1667
1.9200 0.6234 0.1738
1.9400 0.6301 0.1720
1.9600 0.6368 0.1718
1.9800 0.6435 0.1715
2.0000 0.6500 0.1696
2.0200 0.6566 0.1699
2.0400 0.6633 0.1725
2.0600 0.6700 0.1729
2.0800 0.6767 0.1656
2.1000 0.6834 0.1683
2.1200 0.6901 0.1710
2.1400 0.6968 0.1655
2.1600 0.7034 0.1705
2.1800 0.7100 0.1720
2.2000 0.7166 0.1732
2.2200 0.7233 0.1642
2.2400 0.7300 0.1670
2.2600 0.7367 0.1678
2.2800 0.7434 0.1688
2.3000 0.7500 0.1677
2.3200 0.7567 0.1657
2.3400 0.7634 0.1630
2.3600 0.7700 0.1652
2.3800 0.7766 0.1689
2.4000 0.7833 0.1692
2.4200 0.7900 0.1702
2.4400 0.7967 0.1632
2.4600 0.8034 0.1616
2.4800 0.8101 0.1684
2.5000 0.8168 0.1651
2.5200 0.8234 0.1578
2.5400 0.8300 0.1682
2.5600 0.8366 0.1592
2.5800 0.8433 0.1650
2.6000 0.8500 0.1677
2.6200 0.8567 0.1528
2.6400 0.8635 0.1614
2.6600 0.8701 0.1701
2.6800 0.8768 0.1566
2.7000 0.8834 0.1588
2.7200 0.8900 0.1665
2.7400 0.8966 0.1554
2.7600 0.9033 0.1640
2.7800 0.9100 0.1640
2.8000 0.9168 0.1520
2.8200 0.9234 0.1643
2.8400 0.9301 0.1658
2.8600 0.9368 0.1477
2.8800 0.9435 0.1681
2.9000 0.9501 0.1622
2.9200 0.9567 0.1507
2.9400 0.9633 0.1656
2.9600 0.9700 0.1639
2.9800 0.9767 0.1492
3.0000 0.9834 0.1656
3.0200 0.9901 0.1619
3.0400 0.9967 0.1553
3.0600 1.0034 0.1653
3.0800 1.0100 0.1565
3.1000 1.0166 0.1526
3.1200 1.0232 0.1716
3.1400 1.0299 0.1570
3.1600 1.0367 0.1542
3.1800 1.0434 0.1673
3.2000 1.0501 0.1546
3.2200 1.0567 0.1554
3.2400 1.0634 0.1668
3.2600 1.0700 0.1551
3.2800 1.0767 0.1533
3.3000 1.0833 0.1716
3.3200 1.0900 0.1512
3.3400 1.0967 0.1552
3.3600 1.1034 0.1688
3.3800 1.1101 0.1579
3.4000 1.1168 0.1500
3.4200 1.1235 0.1708
3.4400 1.1301 0.1552
3.4600 1.1367 0.1545
3.4800 1.1433 0.1689
3.5000 1.1500 0.1520
3.5200 1.1567 0.1537
3.5400 1.1634 0.1698
3.5600 1.1701 0.1534
3.5800 1.1768 0.1549
3.6000 1.1834 0.1648
3.6200 1.1900 0.1511
3.6400 1.1966 0.1548
3.6600 1.2033 0.1636
3.6800 1.2100 0.1564
3.7000 1.2167 0.1544
3.7200 1.2234 0.1607
3.7400 1.2301 0.1584
3.7600 1.2367 0.1577
3.7800 1.2434 0.1562
3.8000 1.2500 0.1545
3.8200 1.2566 0.1529
3.8400 1.2633 0.1614
3.8600 1.2700 0.1541
3.8800 1.2767 0.1548
3.9000 1.2834 0.1580
3.9200 1.2900 0.1609
3.9400 1.2967 0.1527
3.9600 1.3034 0.1558
3.9800 1.3101 0.1583
4.0000 1.3167 0.1486
4.0200 1.3233 0.1562
4.0400 1.3300 0.1586
4.0600 1.3367 0.1491
4.0800 1.3434 0.1580
4.1000 1.3501 0.1558
4.1200 1.3568 0.1482
4.1400 1.3634 0.1605
4.1600 1.3701 0.1537
4.1800 1.3767 0.1458
4.2000 1.3833 0.1608
4.2200 1.3900 0.1613
4.2400 1.3967 0.1430
4.2600 1.4034 0.1601
4.2800 1.4101 0.1550
4.3000 1.4168 0.1446
4.3200 1.4235 0.1641
4.3400 1.4301 0.1535
4.3600 1.4367 0.1471
4.3800 1.4433 0.1638
4.4000 1.4500 0.1535
4.4200 1.4567 0.1473
4.4400 1.4634 0.1652
4.4600 1.4700 0.1557
4.4800 1.4767 0.1457
4.5000 1.4834 0.1622
4.5200 1.4900 0.1490
4.5400 1.4967 0.1522
4.5600 1.5033 0.1617
4.5800 1.5100 0.1505
4.6000 1.5167 0.1532
4.6200 1.5234 0.1516
4.6400 1.5301 0.1526
4.6600 1.5368 0.1535
4.6800 1.5434 0.1556
4.7000 1.5501 0.1497
4.7200 1.5567 0.1507
4.7400 1.5633 0.1545
4.7600 1.5700 0.1579
4.7800 1.5767 0.1519
4.8000 1.5834 0.1497
4.8200 1.5901 0.1562
4.8400 1.5968 0.1522
4.8600 1.6035 0.1509
4.8800 1.6101 0.1564
4.9000 1.6166 0.1505
4.9200 1.6233 0.1545
4.9400 1.6299 0.1588
4.9600 1.6367 0.1461
4.9800 1.6434 0.1546
5.0000 1.6501 0.1590
5.0200 1.6568 0.1462
5.0400 1.6635 0.1526
5.0600 1.6701 0.1531
5.0800 1.6767 0.1452
5.1000 1.6833 0.1605
5.1200 1.6900 0.1557
5.1400 1.6967 0.1455
5.1600 1.7034 0.1568
5.1800 1.7101 0.1575
5.2000 1.7168 0.1477
5.2200 1.7235 0.1585
5.2400 1.7301 0.1516
5.2600 1.7367 0.1500
5.2800 1.7433 0.1555
5.3000 1.7500 0.1514
5.3200 1.7567 0.1498
5.3400 1.7634 0.1533
5.3600 1.7700 0.1510
5.3800 1.7767 0.1513
5.4000 1.7834 0.1519
5.4200 1.7900 0.1488
5.4400 1.7967 0.1524
5.4600 1.8033 0.1471
5.4800 1.8100 0.1519
5.5000 1.8167 0.1522
5.5200 1.8234 0.1478
5.5400 1.8301 0.1475
5.5600 1.8368 0.1579
5.5800 1.8435 0.1454
5.6000 1.8501 0.1445
5.6200 1.8567 0.1558
5.6400 1.8633 0.1545
5.6600 1.8700 0.1475
5.6800 1.8767 0.1536
5.7000 1.8834 0.1442
5.7200 1.8901 0.1468
5.7400 1.8968 0.1570
5.7600 1.9034 0.1420
5.7800 1.9100 0.1462
5.8000 1.9167 0.1544
5.8200 1.9233 0.1437
5.8400 1.9300 0.1430
5.8600 1.9367 0.1497
5.8800 1.9434 0.1423
5.9000 1.9500 0.1477
5.9200 1.9567 0.1506
5.9400 1.9634 0.1486
5.9600 1.9700 0.1438
5.9800 1.9766 0.1512
6.0000 1.9833 0.1423
6.0200 1.9900 0.1429
6.0400 1.9967 0.1472
6.0600 2.0034 0.1466
6.0800 2.0100 0.1405
6.1000 2.0167 0.1531
6.1200 2.0234 0.1464
6.1400 2.0301 0.1374
6.1600 2.0367 0.1508
6.1800 2.0433 0.1455
6.2000 2.0500 0.1420
6.2200 2.0567 0.1506
6.2400 2.0634 0.1452
6.2600 2.0701 0.1393
6.2800 2.0768 0.1504
6.3000 2.0835 0.1415
6.3200 2.0901 0.1419
6.3400 2.0967 0.1509
6.3600 2.1033 0.1423
6.3800 2.1100 0.1387
6.4000 2.1167 0.1503
6.4200 2.1234 0.1347
6.4400 2.1301 0.1449
6.4600 2.1368 0.1495
6.4800 2.1435 0.1366
6.5000 2.1501 0.1402
6.5200 2.1567 0.1511
6.5400 2.1634 0.1347
6.5600 2.1700 0.1426
6.5800 2.1767 0.1519
6.6000 2.1834 0.1333
6.6200 2.1901 0.1436
6.6400 2.1967 0.1506
6.6600 2.2034 0.1284
6.6800 2.2101 0.1446
6.7000 2.2167 0.1452
6.7200 2.2233 0.1329
6.7400 2.2299 0.1447
6.7600 2.2366 0.1445
6.7800 2.2434 0.1308
6.8000 2.2501 0.1422
6.8200 2.2567 0.1475
6.8400 2.2634 0.1303
6.8600 2.2701 0.1439
6.8800 2.2767 0.1447
6.9000 2.2833 0.1299
6.9200 2.2900 0.1434
6.9400 2.2967 0.1431
6.9600 2.3034 0.1345
6.9800 2.3101 0.1395
7.0000 2.3168 0.1435
7.0200 2.3234 0.1362
7.0400 2.3301 0.1341
7.0600 2.3367 0.1497
7.0800 2.3433 0.1386
7.1000 2.3500 0.1340
7.1200 2.3567 0.1450
7.1400 2.3634 0.1365
7.1600 2.3701 0.1370
7.1800 2.3768 0.1413
7.2000 2.3835 0.1327
7.2200 2.3901 0.1337
7.2400 2.3967 0.1488
7.2600 2.4033 0.1322
7.2800 2.4100 0.1346
7.3000 2.4167 0.1468
7.3200 2.4234 0.1268
7.3400 2.4301 0.1341
7.3600 2.4367 0.1492
7.3800 2.4434 0.1293
7.4000 2.4501 0.1368
7.4200 2.4567 0.1418
7.4400 2.4633 0.1313
7.4600 2.4700 0.1405
7.4800 2.4767 0.1434
7.5000 2.4834 0.1253
7.5200 2.4900 0.1397
7.5400 2.4967 0.1427
7.5600 2.5034 0.1280
7.5800 2.5101 0.1385
7.6000 2.5167 0.1360
7.6200 2.5233 0.1301
7.6400 2.5300 0.1412
7.6600 2.5367 0.1319
7.6800 2.5434 0.1274
7.7000 2.5501 0.1442
7.7200 2.5568 0.1300
7.7400 2.5635 0.1293
7.7600 2.5701 0.1389
7.7800 2.5767 0.1363
7.8000 2.5833 0.1329
7.8200 2.5900 0.1412
7.8400 2.5967 0.1291
7.8600 2.6034 0.1360
7.8800 2.6101 0.1399
7.9000 2.6167 0.1266
7.9200 2.6234 0.1382
7.9400 2.6301 0.1387
7.9600 2.6367 0.1263
7.9800 2.6433 0.1397
8.0000 2.6500 0.1368
8.0200 2.6567 0.1289
8.0400 2.6634 0.1338
8.0600 2.6700 0.1314
8.0800 2.6767 0.1304
8.1000 2.6834 0.1369
8.1200 2.6901 0.1284
8.1400 2.6967 0.1258
8.1600 2.7033 0.1391
8.1800 2.7099 0.1281
8.2000 2.7166 0.1315
8.2200 2.7234 0.1304
8.2400 2.7301 0.1293
8.2600 2.7368 0.1284
8.2800 2.7434 0.1326
8.3000 2.7501 0.1274
8.3200 2.7567 0.1287
8.3400 2.7633 0.1304
8.3600 2.7700 0.1300
8.3800 2.7767 0.1297
8.4000 2.7834 0.1309
8.4200 2.7901 0.1256
8.4400 2.7967 0.1311
8.4600 2.8034 0.1289
8.4800 2.8101 0.1228
8.5000 2.8167 0.1287
8.5200 2.8234 0.1300
8.5400 2.8300 0.1299
8.5600 2.8367 0.1265
8.5800 2.8434 0.1266
8.6000 2.8501 0.1221
8.6200 2.8568 0.1310
8.6400 2.8635 0.1245
8.6600 2.8701 0.1233
8.6800 2.8767 0.1258
8.7000 2.8833 0.1244
8.7200 2.8900 0.1245
8.7400 2.8967 0.1264
8.7600 2.9034 0.1219
8.7800 2.9101 0.1258
8.8000 2.9168 0.1260
8.8200 2.9234 0.1297
8.8400 2.9301 0.1237
8.8600 2.9367 0.1251
8.8800 2.9433 0.1251
8.9000 2.9499 0.1254
8.9200 2.9566 0.1248
8.9400 2.9633 0.1233
8.9600 2.9700 0.1271
8.9800 2.9767 0.1236
9.0000 2.9834 0.1280
9.0200 2.9901 0.1250
9.0400 2.9967 0.1220
9.0600 3.0033 0.1275
9.0800 3.0100 0.1251
9.1000 3.0167 0.1202
9.1200 3.0234 0.1275
9.1400 3.0301 0.1229
9.1600 3.0368 0.1206
9.1800 3.0434 0.1253
9.2000 3.0501 0.1234
9.2200 3.0568 0.1223
9.2400 3.0633 0.1303
9.2600 3.0700 0.1230
9.2800 3.0767 0.1205
9.3000 3.0834 0.1277
9.3200 3.0901 0.1221
9.3400 3.0968 0.1184
9.3600 3.1035 0.1265
9.3800 3.1101 0.1201
9.4000 3.1167 0.1226
9.4200 3.1233 0.1320
9.4400 3.1300 0.1207
9.4600 3.1367 0.1231
9.4800 3.1434 0.1252
9.5000 3.1501 0.1214
9.5200 3.1567 0.1263
9.5400 3.1634 0.1269
9.5600 3.1701 0.1193
9.5800 3.1768 0.1281
9.6000 3.1834 0.1225
9.6200 3.1900 0.1208
9.6400 3.1966 0.1285
9.6600 3.2034 0.1248
9.6800 3.2100 0.1184
9.7000 3.2167 0.1234
9.7200 3.2233 0.1267
9.7400 3.2300 0.1195
9.7600 3.2366 0.1237
9.7800 3.2433 0.1226
9.8000 3.2500 0.1191
9.8200 3.2567 0.1234
9.8400 3.2634 0.1214
9.8600 3.2701 0.1155
9.8800 3.2768 0.1239
9.9000 3.2835 0.1235
9.9200 3.2901 0.1221
9.9400 3.2967 0.1191
9.9600 3.3033 0.1242
9.9800 3.3100 0.1226
10.0000 3.3167 0.1193
10.0200 3.3234 0.1228
10.0400 3.3301 0.1228
10.0600 3.3368 0.1194
10.0800 3.3435 0.1220
10.1000 3.3501 0.1214
10.1200 3.3567 0.1214
10.1400 3.3633 0.1208
10.1600 3.3700 0.1212
10.1800 3.3766 0.1184
10.2000 3.3833 0.1225
10.2200 3.3900 0.1253
10.2400 3.3967 0.1147
10.2600 3.4034 0.1216
10.2800 3.4101 0.1192
10.3000 3.4167 0.1154
10.3200 3.4233 0.1249
10.3400 3.4299 0.1242
10.3600 3.4366 0.1129
10.3800 3.4433 0.1229
10.4000 3.4500 0.1209
10.4200 3.4567 0.1187
10.4400 3.4634 0.1196
10.4600 3.4701 0.1231
10.4800 3.4767 0.1159
10.5000 3.4834 0.1223
10.5200 3.4900 0.1211
10.5400 3.4967 0.1194
10.5600 3.5034 0.1146
10.5800 3.5101 0.1178
10.6000 3.5167 0.1181
10.6200 3.5234 0.1184
10.6400 3.5301 0.1199
10.6600 3.5368 0.1139
10.6800 3.5434 0.1165
10.7000 3.5500 0.1207
10.7200 3.5566 0.1125
10.7400 3.5633 0.1141
10.7600 3.5701 0.1185
10.7800 3.5767 0.1140
10.8000 3.5834 0.1135
10.8200 3.5901 0.1185
10.8400 3.5968 0.1172
10.8600 3.6034 0.1093
10.8800 3.6100 0.1193
10.9000 3.6167 0.1115
10.9200 3.6234 0.1134
10.9400 3.6301 0.1196
10.9600 3.6368 0.1133
10.9800 3.6434 0.1097
11.0000 3.6501 0.1150
11.0200 3.6567 0.1119
11.0400 3.6633 0.1138
11.0600 3.6699 0.1196
11.0800 3.6766 0.1104
11.1000 3.6833 0.1139
11.1200 3.6900 0.1119
11.1400 3.6967 0.1097
11.1600 3.7034 0.1129
11.1800 3.7101 0.1129
11.2000 3.7167 0.1062
11.2200 3.7233 0.1141
11.2400 3.7300 0.1162
11.2600 3.7366 0.1098
11.2800 3.7434 0.1111
11.3000 3.7501 0.1184
11.3200 3.7568 0.1050
11.3400 3.7635 0.1117
11.3600 3.7702 0.1160
11.3800 3.7768 0.1088
11.4000 3.7834 0.1094
11.4200 3.7900 0.1179
11.4400 3.7966 0.1113
11.4600 3.8034 0.1104
11.4800 3.8101 0.1157
11.5000 3.8168 0.1076
11.5200 3.8235 0.1097
11.5400 3.8301 0.1195
11.5600 3.8368 0.1066
11.5800 3.8434 0.1117
11.6000 3.8500 0.1163
11.6200 3.8566 0.1061
11.6400 3.8633 0.1154
11.6600 3.8700 0.1201
11.6800 3.8767 0.1035
11.7000 3.8834 0.1107
11.7200 3.8901 0.1167
11.7400 3.8967 0.0986
11.7600 3.9033 0.1207
11.7800 3.9099 0.1161
11.8000 3.9166 0.1032
11.8200 3.9233 0.1125
11.8400 3.9300 0.1136
11.8600 3.9367 0.1056
11.8800 3.9434 0.1127
11.9000 3.9501 0.1136
11.9200 3.9567 0.1050
11.9400 3.9633 0.1146
11.9600 3.9699 0.1165
11.9800 3.9766 0.1064
12.0000 3.9834 0.1187
12.0200 3.9901 0.1101
12.0400 3.9968 0.1069
12.0600 4.0034 0.1150
12.0800 4.0101 0.1089
12.1000 4.0168 0.1102
12.1200 4.0234 0.1109
12.1400 4.0300 0.1136
12.1600 4.0367 0.1093
12.1800 4.0434 0.1094
12.2000 4.0501 0.1061
12.2200 4.0568 0.1135
12.2400 4.0634 0.1077
12.2600 4.0701 0.1037
12.2800 4.0768 0.1159
12.3000 4.0834 0.1041
12.3200 4.0900 0.1036
12.3400 4.0966 0.1147
12.3600 4.1033 0.1082
12.3800 4.1100 0.1115
12.4000 4.1167 0.1088
12.4200 4.1234 0.1006
12.4400 4.1301 0.1045
12.4600 4.1368 0.1182
12.4800 4.1434 0.1065
12.5000 4.1500 0.1055
12.5200 4.1566 0.1103
12.5400 4.1633 0.1011
12.5600 4.1700 0.1129
12.5800 4.1767 0.1136
12.6000 4.1834 0.1081
12.6200 4.1901 0.1034
12.6400 4.1968 0.1047
12.6600 4.2034 0.1022
12.6800 4.2100 0.1135
12.7000 4.2167 0.1134
12.7200 4.2233 0.0963
12.7400 4.2300 0.0992
12.7600 4.2367 0.1167
12.7800 4.2434 0.1025
12.8000 4.2501 0.1049
12.8200 4.2568 0.1070
12.8400 4.2634 0.0978
12.8600 4.2700 0.1062
12.8800 4.2766 0.1160
12.9000 4.2834 0.0999
12.9200 4.2901 0.1017
12.9400 4.2968 0.1086
12.9600 4.3035 0.0979
12.9800 4.3101 0.1114
13.0000 4.3168 0.1098
13.0200 4.3234 0.0954
13.0400 4.3300 0.1030
13.0600 4.3367 0.1050
13.0800 4.3434 0.1001
13.1000 4.3501 0.1109
13.1200 4.3568 0.1015
13.1400 4.3634 0.1011
13.1600 4.3701 0.1061
13.1800 4.3768 0.1070
13.2000 4.3834 0.1003
13.2200 4.3900 0.1067
13.2400 4.3966 0.1011
13.2600 4.4033 0.1008
13.2800 4.4100 0.1046
13.3000 4.4167 0.1065
13.3200 4.4234 0.1010
13.3400 4.4301 0.1016
13.3600 4.4368 0.1049
13.3800 4.4434 0.0958
13.4000 4.4500 0.1014
13.4200 4.4566 0.1073
13.4400 4.4633 0.0987
13.4600 4.4701 0.0991
13.4800 4.4768 0.1109
13.5000 4.4835 0.0946
13.5200 4.4901 0.0972
13.5400 4.4968 0.1056
13.5600 4.5034 0.0978
13.5800 4.5100 0.0979
13.6000 4.5166 0.1120
13.6200 4.5234 0.0917
13.6400 4.5301 0.0979
13.6600 4.5368 0.1104
13.6800 4.5434 0.0915
13.7000 4.5501 0.0975
13.7200 4.5568 0.1142
13.7400 4.5634 0.0881
13.7600 4.5700 0.0968
13.7800 4.5766 0.1150
13.8000 4.5833 0.0926
13.8200 4.5900 0.0963
13.8400 4.5967 0.1107
13.8600 4.6034 0.0939
13.8800 4.6101 0.1000
13.9000 4.6168 0.1110
13.9200 4.6234 0.0849
13.9400 4.6300 0.1050
13.9600 4.6366 0.1121
13.9800 4.6433 0.0871
14.0000 4.6500 0.0948
14.0200 4.6567 0.1138
14.0400 4.6634 0.0924
14.0600 4.6701 0.0972
14.0800 4.6767 0.1039
14.1000 4.6834 0.0892
14.1200 4.6900 0.1010
14.1400 4.6966 0.1152
14.1600 4.7033 0.0888
14.1800 4.7101 0.0957
14.2000 4.7168 0.1011
14.2200 4.7234 0.0941
14.2400 4.7301 0.1091
14.2600 4.7368 0.1050
14.2800 4.7435 0.0863
14.3000 4.7501 0.0987
14.3200 4.7567 0.1045
14.3400 4.7633 0.0971
14.3600 4.7700 0.1059
14.3800 4.7767 0.0958
14.4000 4.7834 0.0908
14.4200 4.7901 0.1037
14.4400 4.7968 0.1030
14.4600 4.8035 0.0939
14.4800 4.8100 0.1004
14.5000 4.8166 0.0946
14.5200 4.8233 0.0991
14.5400 4.8300 0.1030
14.5600 4.8367 0.0987
14.5800 4.8433 0.0945
14.6000 4.8500 0.0962
14.6200 4.8567 0.0941
14.6400 4.8634 0.1026
14.6600 4.8700 0.0976
14.6800 4.8766 0.0934
14.7000 4.8833 0.0989
14.7200 4.8900 0.0981
14.7400 4.8967 0.1053
14.7600 4.9033 0.0975
14.7800 4.9100 0.0905
14.8000 4.9167 0.1026
14.8200 4.9234 0.0974
14.8400 4.9301 0.0960
14.8600 4.9367 0.1024
14.8800 4.9433 0.0932
14.9000 4.9500 0.0950
14.9200 4.9567 0.1002
14.9400 4.9634 0.1004
14.9600 4.9701 0.0940
14.9800 4.9768 0.1028
15.0000 4.9834 0.0943
15.0200 4.9900 0.0947
15.0400 4.9966 0.1013
15.0600 5.0033 0.1014
15.0800 5.0100 0.0969
15.1000 5.0168 0.0973
15.1200 5.0234 0.0941
15.1400 5.0301 0.0975
15.1600 5.0368 0.0987
15.1800 5.0434 0.0980
15.2000 5.0500 0.0991
15.2200 5.0566 0.0936
15.2400 5.0633 0.0927
15.2600 5.0700 0.0990
15.2800 5.0768 0.1025
15.3000 5.0834 0.0978
15.3200 5.0901 0.0917
15.3400 5.0968 0.0936
15.3600 5.1034 0.1031
15.3800 5.1100 0.0935
15.4000 5.1166 0.0980
15.4200 5.1233 0.0941
15.4400 5.1300 0.0906
15.4600 5.1367 0.0974
15.4800 5.1434 0.1064
15.5000 5.1500 0.0933
15.5200 5.1567 0.0900
15.5400 5.1634 0.0972
15.5600 5.1700 0.0969
15.5800 5.1766 0.0958
15.6000 5.1833 0.1003
15.6200 5.1900 0.0912
15.6400 5.1968 0.0891
15.6600 5.2034 0.1024
15.6800 5.2101 0.0961
15.7000 5.2168 0.0920
15.7200 5.2235 0.0922
15.7400 5.2301 0.0952
15.7600 5.2367 0.0948
15.7800 5.2434 0.0984
15.8000 5.2501 0.0928
15.8200 5.2568 0.0922
15.8400 5.2634 0.0985
15.8600 5.2701 0.0955
15.8800 5.2768 0.0883
15.9000 5.2835 0.0997
15.9200 5.2900 0.0960
15.9400 5.2966 0.0845
15.9600 5.3033 0.0991
15.9800 5.3100 0.0926
16.0000 5.3167 0.0911
16.0200 5.3234 0.1038
16.0400 5.3301 0.0865
16.0600 5.3368 0.0894
16.0800 5.3434 0.1030
16.1000 5.3500 0.0857
16.1200 5.3566 0.0958
16.1400 5.3633 0.1011
16.1600 5.3700 0.0856
16.1800 5.3767 0.0915
16.2000 5.3834 0.1007
16.2200 5.3901 0.0829
16.2400 5.3967 0.0969
16.2600 5.4034 0.0948
16.2800 5.4101 0.0852
16.3000 5.4167 0.0951
16.3200 5.4233 0.0976
16.3400 5.4300 0.0869
16.3600 5.4367 0.0950
16.3800 5.4434 0.0937
16.4000 5.4501 0.0935
16.4200 5.4568 0.0893
16.4400 5.4635 0.0885
16.4600 5.4701 0.0930
16.4800 5.4766 0.0907
16.5000 5.4833 0.0938
16.5200 5.4900 0.0952
16.5400 5.4967 0.0872
16.5600 5.5034 0.0932
16.5800 5.5101 0.0925
16.6000 5.5168 0.0826
16.6200 5.5234 0.0991
16.6400 5.5300 0.0934
16.6600 5.5366 0.0832
16.6800 5.5433 0.0959
16.7000 5.5500 0.0893
16.7200 5.5567 0.0801
16.7400 5.5634 0.1032
16.7600 5.5700 0.0896
16.7800 5.5767 0.0772
16.8000 5.5833 0.0970
16.8200 5.5899 0.0912
16.8400 5.5966 0.0772
16.8600 5.6033 0.1059
16.8800 5.6100 0.0878
16.9000 5.6167 0.0778
16.9200 5.6234 0.1053
16.9400 5.6301 0.0911
16.9600 5.6368 0.0782
16.9800 5.6435 0.1011
17.0000 5.6501 0.0875
17.0200 5.6567 0.0811
17.0400 5.6633 0.1038
17.0600 5.6701 0.0836
17.0800 5.6768 0.0754
17.1000 5.6835 0.1041
17.1200 5.6901 0.0906
17.1400 5.6968 0.0784
17.1600 5.7034 0.1025
17.1800 5.7100 0.0875
17.2000 5.7167 0.0798
17.2200 5.7233 0.1008
17.2400 5.7300 0.0916
17.2600 5.7368 0.0803
17.2800 5.7434 0.0986
17.3000 5.7501 0.0838
17.3200 5.7568 0.0843
17.3400 5.7635 0.0982
17.3600 5.7701 0.0841
17.3800 5.7767 0.0827
17.4000 5.7833 0.0978
17.4200 5.7900 0.0874
17.4400 5.7967 0.0828
17.4600 5.8034 0.0940
17.4800 5.8101 0.0874
17.5000 5.8168 0.0809
17.5200 5.8234 0.0968
17.5400 5.8300 0.0914
17.5600 5.8366 0.0845
17.5800 5.8432 0.0890
17.6000 5.8499 0.0879
17.6200 5.8566 0.0905
17.6400 5.8634 0.0873
17.6600 5.8700 0.0897
17.6800 5.8767 0.0839
17.7000 5.8834 0.0897
17.7200 5.8901 0.0852
17.7400 5.8967 0.0933
