Raw Data
Time Displacement Force
(s) (mm) (N)
0.0000 0.0000 -0.1652
0.0200 0.0000 -0.1450
0.0400 0.0008 -0.1080
0.0600 0.0040 -0.1004
0.0800 0.0095 -0.1307
0.1000 0.0152 -0.1395
0.1200 0.0211 -0.1041
0.1400 0.0277 -0.1002
0.1600 0.0350 -0.1132
0.1800 0.0425 -0.0882
0.2000 0.0497 -0.0796
0.2200 0.0565 -0.0718
0.2400 0.0632 -0.0391
0.2600 0.0699 -0.0138
0.2800 0.0766 -0.0075
0.3000 0.0833 0.0254
0.3200 0.0900 0.0368
0.3400 0.0967 0.0429
0.3600 0.1034 0.0718
0.3800 0.1100 0.0717
0.4000 0.1167 0.0878
0.4200 0.1234 0.1090
0.4400 0.1301 0.1081
0.4600 0.1367 0.1132
0.4800 0.1434 0.1408
0.5000 0.1501 0.1386
0.5200 0.1568 0.1361
0.5400 0.1634 0.1494
0.5600 0.1700 0.1424
0.5800 0.1767 0.1389
0.6000 0.1833 0.1510
0.6200 0.1901 0.1400
0.6400 0.1968 0.1472
0.6600 0.2034 0.1500
0.6800 0.2101 0.1423
0.7000 0.2168 0.1509
0.7200 0.2234 0.1498
0.7400 0.2300 0.1485
0.7600 0.2367 0.1587
0.7800 0.2433 0.1518
0.8000 0.2500 0.1474
0.8200 0.2567 0.1621
0.8400 0.2634 0.1538
0.8600 0.2701 0.1548
0.8800 0.2768 0.1609
0.9000 0.2834 0.1558
0.9200 0.2900 0.1641
0.9400 0.2966 0.1673
0.9600 0.3033 0.1587
0.9800 0.3100 0.1706
1.0000 0.3167 0.1621
1.0200 0.3234 0.1626
1.0400 0.3300 0.1727
1.0600 0.3367 0.1658
1.0800 0.3433 0.1661
1.1000 0.3500 0.1732
1.1200 0.3566 0.1692
1.1400 0.3633 0.1682
1.1600 0.3701 0.1732
1.1800 0.3768 0.1665
1.2000 0.3834 0.1727
1.2200 0.3901 0.1745
1.2400 0.3968 0.1650
1.2600 0.4035 0.1721
1.2800 0.4101 0.1750
1.3000 0.4167 0.1658
1.3200 0.4234 0.1753
1.3400 0.4301 0.1699
1.3600 0.4368 0.1656
1.3800 0.4434 0.1791
1.4000 0.4501 0.1723
1.4200 0.4568 0.1679
1.4400 0.4634 0.1774
1.4600 0.4700 0.1717
1.4800 0.4766 0.1742
1.5000 0.4833 0.1746
1.5200 0.4900 0.1668
1.5400 0.4967 0.1724
1.5600 0.5034 0.1748
1.5800 0.5100 0.1673
1.6000 0.5167 0.1742
1.6200 0.5233 0.1733
1.6400 0.5299 0.1661
1.6600 0.5366 0.1755
1.6800 0.5433 0.1677
1.7000 0.5500 0.1690
1.7200 0.5567 0.1720
1.7400 0.5634 0.1637
1.7600 0.5701 0.1696
1.7800 0.5767 0.1776
1.8000 0.5834 0.1578
1.8200 0.5901 0.1674
1.8400 0.5967 0.1694
1.8600 0.6034 0.1591
1.8800 0.6101 0.1684
1.9000 0.6167 0.1718
1.9200 0.6234 0.1580
1.9400 0.6301 0.1659
1.9600 0.6368 0.1646
1.9800 0.6435 0.1553
2.0000 0.6500 0.1647
2.0200 0.6566 0.1681
2.0400 0.6633 0.1554
2.0600 0.6700 0.1631
2.0800 0.6768 0.1649
2.1000 0.6834 0.1558
2.1200 0.6901 0.1619
2.1400 0.6968 0.1573
2.1600 0.7034 0.1560
2.1800 0.7100 0.1625
2.2000 0.7167 0.1588
2.2200 0.7233 0.1568
2.2400 0.7300 0.1623
2.2600 0.7367 0.1571
2.2800 0.7434 0.1562
2.3000 0.7500 0.1621
2.3200 0.7567 0.1574
2.3400 0.7634 0.1536
2.3600 0.7700 0.1619
2.3800 0.7766 0.1550
2.4000 0.7833 0.1554
2.4200 0.7900 0.1591
2.4400 0.7967 0.1546
2.4600 0.8034 0.1540
2.4800 0.8101 0.1607
2.5000 0.8168 0.1526
2.5200 0.8234 0.1489
2.5400 0.8300 0.1589
2.5600 0.8367 0.1535
2.5800 0.8433 0.1570
2.6000 0.8500 0.1561
2.6200 0.8567 0.1532
2.6400 0.8634 0.1529
2.6600 0.8701 0.1561
2.6800 0.8768 0.1476
2.7000 0.8834 0.1549
2.7200 0.8900 0.1553
2.7400 0.8967 0.1513
2.7600 0.9034 0.1521
2.7800 0.9101 0.1570
2.8000 0.9168 0.1483
2.8200 0.9235 0.1589
2.8400 0.9301 0.1504
2.8600 0.9368 0.1496
2.8800 0.9434 0.1589
2.9000 0.9501 0.1498
2.9200 0.9567 0.1496
2.9400 0.9633 0.1582
2.9600 0.9700 0.1515
2.9800 0.9767 0.1476
3.0000 0.9834 0.1554
3.0200 0.9901 0.1525
3.0400 0.9968 0.1481
3.0600 1.0034 0.1508
3.0800 1.0100 0.1569
3.1000 1.0166 0.1465
3.1200 1.0232 0.1579
3.1400 1.0300 0.1544
3.1600 1.0367 0.1485
3.1800 1.0434 0.1544
3.2000 1.0501 0.1523
3.2200 1.0568 0.1480
3.2400 1.0634 0.1559
3.2600 1.0700 0.1523
3.2800 1.0767 0.1501
3.3000 1.0833 0.1559
3.3200 1.0900 0.1477
3.3400 1.0967 0.1517
3.3600 1.1034 0.1575
3.3800 1.1101 0.1476
3.4000 1.1168 0.1500
3.4200 1.1235 0.1556
3.4400 1.1301 0.1438
3.4600 1.1367 0.1542
3.4800 1.1433 0.1524
3.5000 1.1500 0.1432
3.5200 1.1567 0.1513
3.5400 1.1634 0.1548
3.5600 1.1701 0.1431
3.5800 1.1768 0.1525
3.6000 1.1834 0.1526
3.6200 1.1900 0.1449
3.6400 1.1966 0.1555
3.6600 1.2033 0.1474
3.6800 1.2100 0.1462
3.7000 1.2167 0.1555
3.7200 1.2234 0.1437
3.7400 1.2301 0.1471
3.7600 1.2367 0.1569
3.7800 1.2434 0.1396
3.8000 1.2501 0.1471
3.8200 1.2567 0.1520
3.8400 1.2633 0.1442
3.8600 1.2700 0.1499
3.8800 1.2767 0.1534
3.9000 1.2834 0.1395
3.9200 1.2900 0.1551
3.9400 1.2967 0.1467
3.9600 1.3034 0.1425
3.9800 1.3101 0.1551
4.0000 1.3167 0.1446
4.0200 1.3233 0.1455
4.0400 1.3300 0.1536
4.0600 1.3367 0.1399
4.0800 1.3434 0.1481
4.1000 1.3501 0.1504
4.1200 1.3568 0.1388
4.1400 1.3634 0.1525
4.1600 1.3701 0.1507
4.1800 1.3767 0.1389
4.2000 1.3833 0.1567
4.2200 1.3900 0.1486
4.2400 1.3968 0.1338
4.2600 1.4035 0.1605
4.2800 1.4101 0.1397
4.3000 1.4168 0.1424
4.3200 1.4235 0.1581
4.3400 1.4301 0.1351
4.3600 1.4367 0.1441
4.3800 1.4433 0.1622
4.4000 1.4500 0.1358
4.4200 1.4567 0.1474
4.4400 1.4634 0.1558
4.4600 1.4700 0.1384
4.4800 1.4767 0.1491
4.5000 1.4834 0.1541
4.5200 1.4901 0.1353
4.5400 1.4967 0.1562
4.5600 1.5033 0.1532
4.5800 1.5100 0.1371
4.6000 1.5167 0.1578
4.6200 1.5234 0.1469
4.6400 1.5301 0.1361
4.6600 1.5368 0.1572
4.6800 1.5434 0.1466
4.7000 1.5501 0.1333
4.7200 1.5567 0.1580
4.7400 1.5633 0.1479
4.7600 1.5700 0.1355
4.7800 1.5768 0.1559
4.8000 1.5835 0.1437
4.8200 1.5901 0.1392
4.8400 1.5968 0.1553
4.8600 1.6035 0.1418
4.8800 1.6101 0.1436
4.9000 1.6167 0.1492
4.9200 1.6233 0.1447
4.9400 1.6300 0.1425
4.9600 1.6367 0.1509
4.9800 1.6434 0.1464
5.0000 1.6501 0.1431
5.0200 1.6568 0.1511
5.0400 1.6635 0.1453
5.0600 1.6701 0.1418
5.0800 1.6767 0.1467
5.1000 1.6833 0.1457
5.1200 1.6900 0.1445
5.1400 1.6967 0.1462
5.1600 1.7034 0.1506
5.1800 1.7101 0.1416
5.2000 1.7168 0.1431
5.2200 1.7235 0.1498
5.2400 1.7301 0.1357
5.2600 1.7367 0.1459
5.2800 1.7433 0.1488
5.3000 1.7500 0.1431
5.3200 1.7567 0.1425
5.3400 1.7634 0.1493
5.3600 1.7701 0.1398
5.3800 1.7767 0.1475
5.4000 1.7834 0.1469
5.4200 1.7900 0.1352
5.4400 1.7967 0.1509
5.4600 1.8033 0.1432
5.4800 1.8100 0.1418
5.5000 1.8167 0.1467
5.5200 1.8234 0.1467
5.5400 1.8301 0.1413
5.5600 1.8368 0.1431
5.5800 1.8435 0.1438
5.6000 1.8501 0.1423
5.6200 1.8567 0.1400
5.6400 1.8633 0.1483
5.6600 1.8700 0.1430
5.6800 1.8767 0.1400
5.7000 1.8834 0.1429
5.7200 1.8901 0.1415
5.7400 1.8968 0.1402
5.7600 1.9034 0.1420
5.7800 1.9101 0.1380
5.8000 1.9167 0.1403
5.8200 1.9233 0.1473
5.8400 1.9300 0.1366
5.8600 1.9367 0.1436
5.8800 1.9434 0.1459
5.9000 1.9501 0.1326
5.9200 1.9567 0.1390
5.9400 1.9634 0.1434
5.9600 1.9701 0.1354
5.9800 1.9767 0.1424
6.0000 1.9833 0.1415
6.0200 1.9900 0.1409
6.0400 1.9967 0.1396
6.0600 2.0034 0.1414
6.0800 2.0101 0.1355
6.1000 2.0168 0.1429
6.1200 2.0235 0.1367
6.1400 2.0301 0.1354
6.1600 2.0367 0.1419
6.1800 2.0433 0.1393
6.2000 2.0500 0.1372
6.2200 2.0567 0.1385
6.2400 2.0634 0.1390
6.2600 2.0701 0.1366
6.2800 2.0768 0.1396
6.3000 2.0834 0.1379
6.3200 2.0901 0.1346
6.3400 2.0967 0.1367
6.3600 2.1033 0.1399
6.3800 2.1100 0.1391
6.4000 2.1167 0.1384
6.4200 2.1234 0.1349
6.4400 2.1301 0.1377
6.4600 2.1368 0.1359
6.4800 2.1435 0.1383
6.5000 2.1501 0.1321
6.5200 2.1568 0.1362
6.5400 2.1634 0.1354
6.5600 2.1700 0.1357
6.5800 2.1767 0.1340
6.6000 2.1834 0.1393
6.6200 2.1900 0.1322
6.6400 2.1967 0.1295
6.6600 2.2035 0.1365
6.6800 2.2101 0.1330
6.7000 2.2167 0.1350
6.7200 2.2233 0.1344
6.7400 2.2299 0.1334
6.7600 2.2367 0.1347
6.7800 2.2434 0.1323
6.8000 2.2501 0.1317
6.8200 2.2568 0.1329
6.8400 2.2634 0.1351
6.8600 2.2701 0.1293
6.8800 2.2767 0.1292
6.9000 2.2833 0.1369
6.9200 2.2900 0.1320
6.9400 2.2967 0.1331
6.9600 2.3034 0.1349
6.9800 2.3101 0.1350
7.0000 2.3168 0.1278
7.0200 2.3234 0.1337
7.0400 2.3301 0.1341
7.0600 2.3367 0.1323
7.0800 2.3434 0.1334
7.1000 2.3500 0.1358
7.1200 2.3567 0.1308
7.1400 2.3634 0.1370
7.1600 2.3701 0.1378
7.1800 2.3768 0.1269
7.2000 2.3835 0.1336
7.2200 2.3901 0.1373
7.2400 2.3967 0.1298
7.2600 2.4033 0.1377
7.2800 2.4100 0.1365
7.3000 2.4167 0.1274
7.3200 2.4234 0.1348
7.3400 2.4301 0.1329
7.3600 2.4368 0.1332
7.3800 2.4434 0.1374
7.4000 2.4501 0.1310
7.4200 2.4567 0.1262
7.4400 2.4633 0.1390
7.4600 2.4699 0.1311
7.4800 2.4767 0.1309
7.5000 2.4834 0.1379
7.5200 2.4901 0.1289
7.5400 2.4967 0.1279
7.5600 2.5034 0.1373
7.5800 2.5101 0.1283
7.6000 2.5167 0.1326
7.6200 2.5234 0.1348
7.6400 2.5300 0.1270
7.6600 2.5367 0.1342
7.6800 2.5434 0.1324
7.7000 2.5501 0.1271
7.7200 2.5568 0.1364
7.7400 2.5635 0.1329
7.7600 2.5702 0.1254
7.7800 2.5767 0.1367
7.8000 2.5833 0.1282
7.8200 2.5900 0.1287
7.8400 2.5967 0.1337
7.8600 2.6034 0.1295
7.8800 2.6101 0.1280
7.9000 2.6168 0.1343
7.9200 2.6234 0.1284
7.9400 2.6301 0.1301
7.9600 2.6367 0.1316
7.9800 2.6433 0.1250
8.0000 2.6500 0.1319
8.0200 2.6567 0.1323
8.0400 2.6634 0.1214
8.0600 2.6701 0.1305
8.0800 2.6767 0.1318
8.1000 2.6834 0.1196
8.1200 2.6901 0.1321
8.1400 2.6967 0.1266
8.1600 2.7033 0.1231
8.1800 2.7099 0.1310
8.2000 2.7166 0.1272
8.2200 2.7234 0.1224
8.2400 2.7301 0.1348
8.2600 2.7367 0.1234
8.2800 2.7434 0.1221
8.3000 2.7501 0.1319
8.3200 2.7568 0.1225
8.3400 2.7634 0.1237
8.3600 2.7700 0.1368
8.3800 2.7767 0.1178
8.4000 2.7834 0.1268
8.4200 2.7901 0.1305
8.4400 2.7967 0.1216
8.4600 2.8034 0.1257
8.4800 2.8101 0.1283
8.5000 2.8167 0.1210
8.5200 2.8234 0.1254
8.5400 2.8300 0.1294
8.5600 2.8367 0.1181
8.5800 2.8434 0.1270
8.6000 2.8501 0.1286
8.6200 2.8568 0.1204
8.6400 2.8635 0.1223
8.6600 2.8701 0.1313
8.6800 2.8768 0.1230
8.7000 2.8834 0.1206
8.7200 2.8900 0.1294
8.7400 2.8967 0.1233
8.7600 2.9034 0.1208
8.7800 2.9101 0.1301
8.8000 2.9168 0.1231
8.8200 2.9234 0.1221
8.8400 2.9301 0.1281
8.8600 2.9367 0.1238
8.8800 2.9433 0.1235
8.9000 2.9499 0.1310
8.9200 2.9566 0.1221
8.9400 2.9634 0.1167
8.9600 2.9700 0.1328
8.9800 2.9767 0.1213
9.0000 2.9834 0.1175
9.0200 2.9901 0.1313
9.0400 2.9967 0.1248
9.0600 3.0033 0.1183
9.0800 3.0100 0.1348
9.1000 3.0167 0.1213
9.1200 3.0234 0.1192
9.1400 3.0301 0.1288
9.1600 3.0368 0.1185
9.1800 3.0435 0.1227
9.2000 3.0501 0.1342
9.2200 3.0568 0.1144
9.2400 3.0634 0.1243
9.2600 3.0700 0.1325
9.2800 3.0767 0.1182
9.3000 3.0834 0.1240
9.3200 3.0901 0.1299
9.3400 3.0968 0.1187
9.3600 3.1035 0.1244
9.3800 3.1101 0.1273
9.4000 3.1168 0.1176
9.4200 3.1233 0.1268
9.4400 3.1300 0.1254
9.4600 3.1367 0.1213
9.4800 3.1434 0.1241
9.5000 3.1501 0.1252
9.5200 3.1567 0.1226
9.5400 3.1634 0.1255
9.5600 3.1701 0.1200
9.5800 3.1768 0.1278
9.6000 3.1834 0.1195
9.6200 3.1900 0.1285
9.6400 3.1967 0.1299
9.6600 3.2034 0.1172
9.6800 3.2101 0.1254
9.7000 3.2167 0.1298
9.7200 3.2234 0.1146
9.7400 3.2300 0.1278
9.7600 3.2367 0.1292
9.7800 3.2433 0.1159
9.8000 3.2499 0.1255
9.8200 3.2567 0.1273
9.8400 3.2634 0.1170
9.8600 3.2701 0.1269
9.8800 3.2768 0.1264
9.9000 3.2835 0.1124
9.9200 3.2902 0.1303
9.9400 3.2968 0.1248
9.9600 3.3034 0.1135
9.9800 3.3100 0.1293
10.0000 3.3167 0.1261
10.0200 3.3234 0.1082
10.0400 3.3301 0.1278
10.0600 3.3368 0.1213
10.0800 3.3435 0.1163
10.1000 3.3501 0.1289
10.1200 3.3567 0.1203
10.1400 3.3634 0.1145
10.1600 3.3700 0.1323
10.1800 3.3766 0.1174
10.2000 3.3833 0.1154
10.2200 3.3900 0.1314
10.2400 3.3967 0.1197
10.2600 3.4034 0.1152
10.2800 3.4101 0.1242
10.3000 3.4167 0.1161
10.3200 3.4233 0.1212
10.3400 3.4299 0.1233
10.3600 3.4366 0.1163
10.3800 3.4433 0.1232
10.4000 3.4501 0.1214
10.4200 3.4567 0.1168
10.4400 3.4634 0.1220
10.4600 3.4701 0.1215
10.4800 3.4768 0.1139
10.5000 3.4834 0.1208
10.5200 3.4900 0.1174
10.5400 3.4967 0.1206
10.5600 3.5034 0.1191
10.5800 3.5101 0.1168
10.6000 3.5167 0.1199
10.6200 3.5234 0.1218
10.6400 3.5301 0.1183
10.6600 3.5368 0.1108
10.6800 3.5434 0.1210
10.7000 3.5500 0.1216
10.7200 3.5567 0.1164
10.7400 3.5634 0.1186
10.7600 3.5701 0.1158
10.7800 3.5768 0.1165
10.8000 3.5835 0.1256
10.8200 3.5901 0.1151
10.8400 3.5968 0.1107
10.8600 3.6034 0.1251
10.8800 3.6100 0.1179
10.9000 3.6167 0.1109
10.9200 3.6234 0.1300
10.9400 3.6301 0.1164
10.9600 3.6368 0.1070
10.9800 3.6434 0.1245
11.0000 3.6501 0.1170
11.0200 3.6568 0.1115
11.0400 3.6634 0.1231
11.0600 3.6700 0.1203
11.0800 3.6766 0.1117
11.1000 3.6833 0.1201
11.1200 3.6900 0.1182
11.1400 3.6967 0.1158
11.1600 3.7034 0.1180
11.1800 3.7101 0.1152
11.2000 3.7167 0.1201
11.2200 3.7233 0.1176
11.2400 3.7300 0.1139
11.2600 3.7367 0.1227
11.2800 3.7434 0.1143
11.3000 3.7501 0.1113
11.3200 3.7568 0.1194
11.3400 3.7635 0.1221
11.3600 3.7702 0.1075
11.3800 3.7768 0.1156
11.4000 3.7834 0.1229
11.4200 3.7900 0.1099
11.4400 3.7967 0.1104
11.4600 3.8034 0.1265
11.4800 3.8101 0.1104
11.5000 3.8167 0.1118
11.5200 3.8234 0.1222
11.5400 3.8301 0.1089
11.5600 3.8368 0.1163
11.5800 3.8434 0.1211
11.6000 3.8500 0.1127
11.6200 3.8567 0.1131
11.6400 3.8633 0.1176
11.6600 3.8700 0.1076
11.6800 3.8767 0.1189
11.7000 3.8834 0.1262
11.7200 3.8901 0.1051
11.7400 3.8967 0.1114
11.7600 3.9033 0.1213
11.7800 3.9099 0.1073
11.8000 3.9166 0.1160
11.8200 3.9233 0.1161
11.8400 3.9300 0.1113
11.8600 3.9367 0.1130
11.8800 3.9434 0.1198
11.9000 3.9501 0.1083
11.9200 3.9567 0.1124
11.9400 3.9634 0.1196
11.9600 3.9700 0.1139
11.9800 3.9767 0.1113
12.0000 3.9834 0.1180
12.0200 3.9901 0.1136
12.0400 3.9968 0.1098
12.0600 4.0034 0.1181
12.0800 4.0101 0.1121
12.1000 4.0168 0.1172
12.1200 4.0234 0.1128
12.1400 4.0300 0.1109
12.1600 4.0367 0.1190
12.1800 4.0434 0.1175
12.2000 4.0501 0.1071
12.2200 4.0568 0.1189
12.2400 4.0634 0.1153
12.2600 4.0701 0.1103
12.2800 4.0768 0.1179
12.3000 4.0834 0.1125
12.3200 4.0900 0.1119
12.3400 4.0966 0.1198
12.3600 4.1033 0.1132
12.3800 4.1101 0.1086
12.4000 4.1168 0.1136
12.4200 4.1234 0.1178
12.4400 4.1301 0.1081
12.4600 4.1368 0.1124
12.4800 4.1434 0.1140
12.5000 4.1500 0.1130
12.5200 4.1566 0.1139
12.5400 4.1633 0.1132
12.5600 4.1701 0.1102
12.5800 4.1767 0.1100
12.6000 4.1834 0.1164
12.6200 4.1901 0.1037
12.6400 4.1968 0.1133
12.6600 4.2034 0.1153
12.6800 4.2100 0.1070
12.7000 4.2167 0.1133
12.7200 4.2234 0.1211
12.7400 4.2301 0.1027
12.7600 4.2367 0.1099
12.7800 4.2434 0.1180
12.8000 4.2501 0.1022
12.8200 4.2568 0.1078
12.8400 4.2634 0.1148
12.8600 4.2700 0.1025
12.8800 4.2767 0.1093
12.9000 4.2834 0.1169
12.9200 4.2901 0.1044
12.9400 4.2968 0.1059
12.9600 4.3035 0.1109
12.9800 4.3101 0.1083
13.0000 4.3168 0.1068
13.0200 4.3234 0.1136
13.0400 4.3300 0.1042
13.0600 4.3367 0.1105
13.0800 4.3433 0.1102
13.1000 4.3501 0.1074
13.1200 4.3567 0.1062
13.1400 4.3634 0.1127
13.1600 4.3701 0.1058
13.1800 4.3768 0.1042
13.2000 4.3834 0.1091
13.2200 4.3900 0.1120
13.2400 4.3966 0.1062
13.2600 4.4033 0.1098
13.2800 4.4100 0.1095
13.3000 4.4167 0.1050
13.3200 4.4234 0.1116
13.3400 4.4301 0.1071
13.3600 4.4368 0.1011
13.3800 4.4434 0.1107
13.4000 4.4500 0.1096
13.4200 4.4566 0.0996
13.4400 4.4633 0.1135
13.4600 4.4701 0.1042
13.4800 4.4768 0.1035
13.5000 4.4835 0.1138
13.5200 4.4901 0.1014
13.5400 4.4968 0.1006
13.5600 4.5034 0.1175
13.5800 4.5100 0.0990
13.6000 4.5167 0.0997
13.6200 4.5234 0.1160
13.6400 4.5301 0.0997
13.6600 4.5368 0.1023
13.6800 4.5434 0.1155
13.7000 4.5501 0.0986
13.7200 4.5568 0.1057
13.7400 4.5634 0.1135
13.7600 4.5700 0.0962
13.7800 4.5766 0.1082
13.8000 4.5833 0.1121
13.8200 4.5900 0.1045
13.8400 4.5967 0.1021
13.8600 4.6034 0.1122
13.8800 4.6100 0.1040
13.9000 4.6167 0.1018
13.9200 4.6233 0.1073
13.9400 4.6300 0.1073
13.9600 4.6366 0.1048
13.9800 4.6433 0.1091
14.0000 4.6501 0.1057
14.0200 4.6568 0.0983
14.0400 4.6634 0.1075
14.0600 4.6701 0.1091
14.0800 4.6768 0.0961
14.1000 4.6834 0.1116
14.1200 4.6900 0.1098
14.1400 4.6967 0.0927
14.1600 4.7034 0.1125
14.1800 4.7101 0.1055
14.2000 4.7168 0.0840
14.2200 4.7235 0.1124
14.2400 4.7301 0.1196
14.2600 4.7368 0.0835
14.2800 4.7434 0.1025
14.3000 4.7500 0.1135
14.3200 4.7567 0.0941
14.3400 4.7633 0.1098
14.3600 4.7701 0.1084
14.3800 4.7768 0.0834
14.4000 4.7835 0.1178
14.4200 4.7902 0.1221
14.4400 4.7968 0.0719
14.4600 4.8034 0.1024
14.4800 4.8100 0.1258
14.5000 4.8166 0.0932
14.5200 4.8233 0.1008
14.5400 4.8300 0.1101
14.5600 4.8367 0.0909
14.5800 4.8434 0.1092
14.6000 4.8500 0.1134
14.6200 4.8567 0.0866
14.6400 4.8634 0.0982
14.6600 4.8700 0.1244
14.6800 4.8766 0.0967
14.7000 4.8832 0.0890
14.7200 4.8899 0.1172
14.7400 4.8966 0.1042
14.7600 4.9034 0.0869
14.7800 4.9101 0.1198
14.8000 4.9168 0.1014
14.8200 4.9235 0.0815
14.8400 4.9301 0.1184
14.8600 4.9367 0.0996
14.8800 4.9434 0.0912
14.9000 4.9501 0.1275
14.9200 4.9568 0.0884
14.9400 4.9634 0.0924
14.9600 4.9701 0.1283
14.9800 4.9768 0.0874
15.0000 4.9835 0.0946
15.0200 4.9900 0.1242
15.0400 4.9966 0.0891
15.0600 5.0033 0.0957
15.0800 5.0100 0.1177
15.1000 5.0168 0.0943
15.1200 5.0234 0.1023
15.1400 5.0301 0.1041
15.1600 5.0368 0.0948
15.1800 5.0434 0.1091
15.2000 5.0500 0.0961
15.2200 5.0567 0.0981
15.2400 5.0634 0.1124
15.2600 5.0701 0.0903
15.2800 5.0767 0.1047
15.3000 5.0834 0.1110
15.3200 5.0901 0.0877
15.3400 5.0968 0.1009
15.3600 5.1034 0.1149
15.3800 5.1100 0.0901
15.4000 5.1166 0.1011
15.4200 5.1233 0.1072
15.4400 5.1300 0.0956
15.4600 5.1367 0.1065
15.4800 5.1434 0.0987
15.5000 5.1500 0.0961
15.5200 5.1567 0.1054
15.5400 5.1633 0.0968
15.5600 5.1700 0.0953
15.5800 5.1766 0.1070
15.6000 5.1833 0.0931
15.6200 5.1901 0.1002
15.6400 5.1968 0.0990
15.6600 5.2035 0.0951
15.6800 5.2101 0.1039
15.7000 5.2168 0.0995
15.7200 5.2235 0.0902
15.7400 5.2301 0.1048
15.7600 5.2367 0.0953
15.7800 5.2434 0.0900
15.8000 5.2501 0.1073
15.8200 5.2568 0.0973
15.8400 5.2635 0.0898
15.8600 5.2701 0.1067
15.8800 5.2768 0.0951
15.9000 5.2835 0.0918
15.9200 5.2900 0.1090
15.9400 5.2966 0.0892
15.9600 5.3033 0.0919
15.9800 5.3100 0.1113
16.0000 5.3167 0.0860
16.0200 5.3234 0.0905
16.0400 5.3301 0.1160
16.0600 5.3368 0.0830
16.0800 5.3434 0.0897
16.1000 5.3500 0.1085
16.1200 5.3566 0.0913
16.1400 5.3633 0.0955
16.1600 5.3700 0.1025
16.1800 5.3768 0.0870
16.2000 5.3834 0.0952
16.2200 5.3901 0.1020
16.2400 5.3968 0.0908
16.2600 5.4034 0.0955
16.2800 5.4101 0.0997
16.3000 5.4167 0.0872
16.3200 5.4233 0.0976
16.3400 5.4300 0.0985
16.3600 5.4367 0.0892
16.3800 5.4434 0.0985
16.4000 5.4502 0.0971
16.4200 5.4568 0.0922
16.4400 5.4635 0.0881
16.4600 5.4701 0.0974
16.4800 5.4767 0.0919
16.5000 5.4833 0.0902
16.5200 5.4900 0.0973
16.5400 5.4968 0.0975
16.5600 5.5034 0.0888
16.5800 5.5101 0.0962
16.6000 5.5168 0.0932
16.6200 5.5234 0.0875
16.6400 5.5300 0.0982
16.6600 5.5366 0.0956
16.6800 5.5433 0.0887
16.7000 5.5500 0.1019
16.7200 5.5567 0.0929
16.7400 5.5634 0.0828
16.7600 5.5701 0.1039
16.7800 5.5768 0.0942
16.8000 5.5834 0.0863
16.8200 5.5900 0.0936
16.8400 5.5966 0.0990
16.8600 5.6033 0.0913
16.8800 5.6100 0.0949
16.9000 5.6167 0.0953
16.9200 5.6234 0.0875
16.9400 5.6301 0.0920
16.9600 5.6368 0.0988
16.9800 5.6435 0.0901
17.0000 5.6501 0.0914
17.0200 5.6567 0.0940
17.0400 5.6633 0.0947
17.0600 5.6700 0.0911
17.0800 5.6767 0.0908
17.1000 5.6834 0.0918
17.1200 5.6900 0.0935
17.1400 5.6967 0.0919
17.1600 5.7034 0.0876
17.1800 5.7101 0.0980
17.2000 5.7167 0.0901
17.2200 5.7234 0.0841
17.2400 5.7301 0.0994
17.2600 5.7368 0.0931
17.2800 5.7435 0.0779
17.3000 5.7501 0.0996
17.3200 5.7568 0.0929
17.3400 5.7635 0.0836
17.3600 5.7701 0.0962
17.3800 5.7767 0.0955
17.4000 5.7833 0.0802
17.4200 5.7900 0.0970
17.4400 5.7967 0.0929
17.4600 5.8034 0.0851
17.4800 5.8101 0.0929
17.5000 5.8168 0.0925
17.5200 5.8234 0.0831
17.5400 5.8300 0.0934
17.5600 5.8366 0.0946
17.5800 5.8432 0.0871
17.6000 5.8500 0.0976
17.6200 5.8567 0.0840
17.6400 5.8634 0.0830
17.6600 5.8701 0.1044
17.6800 5.8767 0.0860
17.7000 5.8834 0.0808
17.7200 5.8901 0.1003
17.7400 5.8967 0.0878
