Raw Data
Time Displacement Force
(s) (mm) (N)
0.0000 0.0001 0.0485
0.0200 0.0001 0.0622
0.0400 0.0008 0.0893
0.0600 0.0041 0.0955
0.0800 0.0096 0.0593
0.1000 0.0154 0.0547
0.1200 0.0213 0.0701
0.1400 0.0279 0.0723
0.1600 0.0352 0.0577
0.1800 0.0426 0.0592
0.2000 0.0497 0.0553
0.2200 0.0566 0.0592
0.2400 0.0633 0.0603
0.2600 0.0700 0.0584
0.2800 0.0766 0.0685
0.3000 0.0833 0.0624
0.3200 0.0901 0.0594
0.3400 0.0968 0.0689
0.3600 0.1035 0.0626
0.3800 0.1101 0.0695
0.4000 0.1167 0.0737
0.4200 0.1234 0.0669
0.4400 0.1301 0.0726
0.4600 0.1368 0.0748
0.4800 0.1435 0.0703
0.5000 0.1502 0.0782
0.5200 0.1569 0.0786
0.5400 0.1635 0.0723
0.5600 0.1701 0.0845
0.5800 0.1767 0.0844
0.6000 0.1834 0.0742
0.6200 0.1901 0.0881
0.6400 0.1968 0.0894
0.6600 0.2035 0.0780
0.6800 0.2102 0.0952
0.7000 0.2168 0.0907
0.7200 0.2235 0.0784
0.7400 0.2301 0.0958
0.7600 0.2367 0.0984
0.7800 0.2434 0.0884
0.8000 0.2501 0.1037
0.8200 0.2568 0.0926
0.8400 0.2635 0.0912
0.8600 0.2701 0.1036
0.8800 0.2768 0.0972
0.9000 0.2835 0.0965
0.9200 0.2901 0.1045
0.9400 0.2967 0.0999
0.9600 0.3034 0.0958
0.9800 0.3101 0.1065
1.0000 0.3168 0.1021
1.0200 0.3234 0.0919
1.0400 0.3301 0.1051
1.0600 0.3368 0.1017
1.0800 0.3434 0.0972
1.1000 0.3500 0.1043
1.1200 0.3567 0.1012
1.1400 0.3634 0.0971
1.1600 0.3701 0.1067
1.1800 0.3768 0.1011
1.2000 0.3835 0.0922
1.2200 0.3902 0.1007
1.2400 0.3969 0.0955
1.2600 0.4035 0.0909
1.2800 0.4101 0.0972
1.3000 0.4168 0.0997
1.3200 0.4235 0.0931
1.3400 0.4301 0.0946
1.3600 0.4368 0.0916
1.3800 0.4435 0.0924
1.4000 0.4502 0.0897
1.4200 0.4569 0.0885
1.4400 0.4635 0.0905
1.4600 0.4701 0.0851
1.4800 0.4767 0.0903
1.5000 0.4833 0.0919
1.5200 0.4901 0.0807
1.5400 0.4968 0.0888
1.5600 0.5035 0.0833
1.5800 0.5101 0.0794
1.6000 0.5168 0.0884
1.6200 0.5235 0.0816
1.6400 0.5301 0.0742
1.6600 0.5367 0.0921
1.6800 0.5434 0.0790
1.7000 0.5501 0.0707
1.7200 0.5568 0.0860
1.7400 0.5635 0.0780
1.7600 0.5701 0.0700
1.7800 0.5768 0.0829
1.8000 0.5835 0.0693
1.8200 0.5901 0.0672
1.8400 0.5968 0.0812
1.8600 0.6034 0.0709
1.8800 0.6101 0.0697
1.9000 0.6168 0.0758
1.9200 0.6235 0.0679
1.9400 0.6302 0.0714
1.9600 0.6369 0.0702
1.9800 0.6435 0.0654
2.0000 0.6501 0.0764
2.0200 0.6567 0.0665
2.0400 0.6634 0.0606
2.0600 0.6701 0.0743
2.0800 0.6768 0.0656
2.1000 0.6835 0.0617
2.1200 0.6902 0.0743
2.1400 0.6969 0.0588
2.1600 0.7035 0.0663
2.1800 0.7101 0.0671
2.2000 0.7167 0.0591
2.2200 0.7234 0.0675
2.2400 0.7301 0.0724
2.2600 0.7368 0.0584
2.2800 0.7435 0.0590
2.3000 0.7501 0.0696
2.3200 0.7568 0.0603
2.3400 0.7635 0.0589
2.3600 0.7701 0.0681
2.3800 0.7767 0.0552
2.4000 0.7834 0.0649
2.4200 0.7901 0.0657
2.4400 0.7968 0.0565
2.4600 0.8035 0.0611
2.4800 0.8101 0.0665
2.5000 0.8169 0.0603
2.5200 0.8235 0.0562
2.5400 0.8301 0.0583
2.5600 0.8367 0.0605
2.5800 0.8434 0.0624
2.6000 0.8501 0.0542
2.6200 0.8569 0.0538
2.6400 0.8636 0.0673
2.6600 0.8702 0.0516
2.6800 0.8769 0.0535
2.7000 0.8835 0.0664
2.7200 0.8901 0.0580
2.7400 0.8967 0.0535
2.7600 0.9034 0.0587
2.7800 0.9101 0.0564
2.8000 0.9168 0.0498
2.8200 0.9235 0.0655
2.8400 0.9302 0.0518
2.8600 0.9369 0.0525
2.8800 0.9435 0.0616
2.9000 0.9501 0.0500
2.9200 0.9567 0.0542
2.9400 0.9634 0.0588
2.9600 0.9701 0.0488
2.9800 0.9768 0.0491
3.0000 0.9835 0.0543
3.0200 0.9902 0.0530
3.0400 0.9969 0.0442
3.0600 1.0035 0.0549
3.0800 1.0101 0.0464
3.1000 1.0167 0.0472
3.1200 1.0233 0.0556
3.1400 1.0301 0.0430
3.1600 1.0368 0.0440
3.1800 1.0435 0.0534
3.2000 1.0501 0.0455
3.2200 1.0568 0.0413
3.2400 1.0635 0.0545
3.2600 1.0701 0.0478
3.2800 1.0767 0.0390
3.3000 1.0834 0.0495
3.3200 1.0901 0.0446
3.3400 1.0968 0.0392
3.3600 1.1035 0.0500
3.3800 1.1102 0.0452
3.4000 1.1169 0.0389
3.4200 1.1236 0.0481
3.4400 1.1302 0.0422
3.4600 1.1368 0.0351
3.4800 1.1434 0.0508
3.5000 1.1501 0.0407
3.5200 1.1568 0.0367
3.5400 1.1635 0.0479
3.5600 1.1702 0.0437
3.5800 1.1769 0.0376
3.6000 1.1835 0.0431
3.6200 1.1901 0.0411
3.6400 1.1967 0.0417
3.6600 1.2034 0.0432
3.6800 1.2101 0.0393
3.7000 1.2168 0.0332
3.7200 1.2235 0.0442
3.7400 1.2302 0.0414
3.7600 1.2368 0.0364
3.7800 1.2435 0.0440
3.8000 1.2501 0.0414
3.8200 1.2567 0.0319
3.8400 1.2634 0.0498
3.8600 1.2701 0.0376
3.8800 1.2768 0.0326
3.9000 1.2835 0.0438
3.9200 1.2901 0.0389
3.9400 1.2968 0.0315
3.9600 1.3035 0.0431
3.9800 1.3101 0.0401
4.0000 1.3167 0.0319
4.0200 1.3234 0.0467
4.0400 1.3301 0.0392
4.0600 1.3368 0.0314
4.0800 1.3435 0.0424
4.1000 1.3502 0.0369
4.1200 1.3569 0.0294
4.1400 1.3635 0.0447
4.1600 1.3701 0.0374
4.1800 1.3767 0.0325
4.2000 1.3834 0.0442
4.2200 1.3901 0.0396
4.2400 1.3968 0.0271
4.2600 1.4035 0.0443
4.2800 1.4102 0.0351
4.3000 1.4169 0.0316
4.3200 1.4235 0.0441
4.3400 1.4301 0.0391
4.3600 1.4367 0.0326
4.3800 1.4434 0.0449
4.4000 1.4501 0.0334
4.4200 1.4568 0.0309
4.4400 1.4635 0.0390
4.4600 1.4701 0.0359
4.4800 1.4768 0.0297
4.5000 1.4835 0.0383
4.5200 1.4901 0.0320
4.5400 1.4967 0.0357
4.5600 1.5034 0.0388
4.5800 1.5101 0.0276
4.6000 1.5168 0.0330
4.6200 1.5235 0.0364
4.6400 1.5302 0.0282
4.6600 1.5368 0.0339
4.6800 1.5435 0.0351
4.7000 1.5501 0.0260
4.7200 1.5567 0.0360
4.7400 1.5634 0.0327
4.7600 1.5701 0.0275
4.7800 1.5768 0.0327
4.8000 1.5835 0.0309
4.8200 1.5902 0.0294
4.8400 1.5969 0.0319
4.8600 1.6035 0.0252
4.8800 1.6102 0.0315
4.9000 1.6168 0.0275
4.9200 1.6234 0.0275
4.9400 1.6301 0.0315
4.9600 1.6368 0.0310
4.9800 1.6435 0.0274
5.0000 1.6502 0.0295
5.0200 1.6569 0.0240
5.0400 1.6636 0.0253
5.0600 1.6702 0.0233
5.0800 1.6768 0.0240
5.1000 1.6834 0.0274
5.1200 1.6900 0.0241
5.1400 1.6968 0.0218
5.1600 1.7035 0.0260
5.1800 1.7102 0.0179
5.2000 1.7169 0.0279
5.2200 1.7235 0.0244
5.2400 1.7302 0.0138
5.2600 1.7367 0.0228
5.2800 1.7434 0.0257
5.3000 1.7500 0.0172
5.3200 1.7568 0.0257
5.3400 1.7635 0.0231
5.3600 1.7701 0.0125
5.3800 1.7768 0.0269
5.4000 1.7835 0.0246
5.4200 1.7901 0.0093
5.4400 1.7967 0.0247
5.4600 1.8034 0.0234
5.4800 1.8101 0.0029
5.5000 1.8168 0.0237
5.5200 1.8235 0.0248
5.5400 1.8302 0.0007
5.5600 1.8369 0.0286
5.5800 1.8436 0.0158
5.6000 1.8502 -0.0073
5.6200 1.8568 0.0357
5.6400 1.8634 0.0120
5.6600 1.8701 -0.0054
5.6800 1.8768 0.0350
5.7000 1.8835 0.0124
5.7200 1.8902 0.0016
5.7400 1.8969 0.0247
5.7600 1.9035 0.0035
5.7800 1.9101 0.0087
5.8000 1.9167 0.0273
5.8200 1.9234 0.0000
5.8400 1.9301 0.0115
5.8600 1.9368 0.0279
5.8800 1.9435 -0.0082
5.9000 1.9501 0.0180
5.9200 1.9568 0.0203
5.9400 1.9635 -0.0089
5.9600 1.9701 0.0162
5.9800 1.9767 0.0154
6.0000 1.9834 -0.0068
6.0200 1.9900 0.0232
6.0400 1.9968 0.0104
6.0600 2.0035 -0.0053
6.0800 2.0101 0.0209
6.1000 2.0168 0.0055
6.1200 2.0235 -0.0022
6.1400 2.0302 0.0172
6.1600 2.0368 -0.0004
6.1800 2.0434 0.0003
6.2000 2.0501 0.0176
6.2200 2.0568 0.0021
6.2400 2.0635 0.0009
6.2600 2.0702 0.0134
6.2800 2.0769 0.0032
6.3000 2.0835 -0.0027
6.3200 2.0902 0.0099
6.3400 2.0968 -0.0009
6.3600 2.1034 0.0012
6.3800 2.1101 0.0081
6.4000 2.1168 0.0004
6.4200 2.1235 -0.0033
6.4400 2.1302 0.0042
6.4600 2.1368 0.0045
6.4800 2.1435 -0.0003
6.5000 2.1502 -0.0006
6.5200 2.1568 0.0079
6.5400 2.1634 -0.0051
6.5600 2.1701 -0.0002
6.5800 2.1768 0.0022
6.6000 2.1835 -0.0030
6.6200 2.1902 0.0023
6.6400 2.1969 0.0008
6.6600 2.2036 -0.0045
6.6800 2.2102 -0.0019
6.7000 2.2168 0.0007
6.7200 2.2234 -0.0034
6.7400 2.2300 0.0010
6.7600 2.2367 -0.0002
6.7800 2.2434 -0.0080
6.8000 2.2501 -0.0048
6.8200 2.2568 0.0000
6.8400 2.2635 -0.0021
6.8600 2.2702 -0.0115
6.8800 2.2768 -0.0020
6.9000 2.2834 -0.0061
6.9200 2.2901 -0.0077
6.9400 2.2968 0.0036
6.9600 2.3035 -0.0084
6.9800 2.3102 -0.0091
7.0000 2.3168 -0.0022
7.0200 2.3235 -0.0057
7.0400 2.3302 -0.0142
7.0600 2.3368 0.0010
7.0800 2.3434 -0.0059
7.1000 2.3501 -0.0128
7.1200 2.3568 -0.0003
7.1400 2.3635 -0.0078
7.1600 2.3702 -0.0135
7.1800 2.3769 0.0039
7.2000 2.3836 -0.0140
7.2200 2.3902 -0.0143
7.2400 2.3968 0.0016
7.2600 2.4034 -0.0101
7.2800 2.4101 -0.0167
7.3000 2.4168 -0.0008
7.3200 2.4235 -0.0140
7.3400 2.4302 -0.0163
7.3600 2.4368 0.0030
7.3800 2.4435 -0.0147
7.4000 2.4502 -0.0179
7.4200 2.4568 0.0005
7.4400 2.4634 -0.0142
7.4600 2.4701 -0.0157
7.4800 2.4768 0.0000
7.5000 2.4835 -0.0156
7.5200 2.4901 -0.0180
7.5400 2.4968 -0.0028
7.5600 2.5035 -0.0153
7.5800 2.5102 -0.0205
7.6000 2.5168 -0.0046
7.6200 2.5234 -0.0129
7.6400 2.5301 -0.0203
7.6600 2.5368 -0.0076
7.6800 2.5435 -0.0134
7.7000 2.5502 -0.0208
7.7200 2.5569 -0.0057
7.7400 2.5636 -0.0182
7.7600 2.5702 -0.0220
7.7800 2.5768 -0.0042
7.8000 2.5834 -0.0155
7.8200 2.5901 -0.0248
7.8400 2.5968 -0.0026
7.8600 2.6035 -0.0189
7.8800 2.6102 -0.0290
7.9000 2.6169 -0.0042
7.9200 2.6235 -0.0147
7.9400 2.6302 -0.0301
7.9600 2.6368 -0.0076
7.9800 2.6434 -0.0194
8.0000 2.6501 -0.0281
8.0200 2.6568 -0.0086
8.0400 2.6635 -0.0179
8.0600 2.6701 -0.0307
8.0800 2.6768 -0.0061
8.1000 2.6835 -0.0181
8.1200 2.6902 -0.0335
8.1400 2.6968 -0.0089
8.1600 2.7034 -0.0157
8.1800 2.7100 -0.0301
8.2000 2.7167 -0.0131
8.2200 2.7235 -0.0233
8.2400 2.7302 -0.0273
8.2600 2.7369 -0.0077
8.2800 2.7435 -0.0301
8.3000 2.7502 -0.0315
8.3200 2.7568 -0.0046
8.3400 2.7634 -0.0309
8.3600 2.7700 -0.0275
8.3800 2.7767 -0.0080
8.4000 2.7835 -0.0333
8.4200 2.7902 -0.0283
8.4400 2.7968 -0.0127
8.4600 2.8035 -0.0333
8.4800 2.8102 -0.0302
8.5000 2.8168 -0.0113
8.5200 2.8234 -0.0337
8.5400 2.8301 -0.0295
8.5600 2.8368 -0.0131
8.5800 2.8435 -0.0317
8.6000 2.8502 -0.0346
8.6200 2.8569 -0.0162
8.6400 2.8635 -0.0296
8.6600 2.8702 -0.0325
8.6800 2.8768 -0.0270
8.7000 2.8834 -0.0241
8.7200 2.8901 -0.0288
8.7400 2.8968 -0.0274
8.7600 2.9035 -0.0297
8.7800 2.9101 -0.0265
8.8000 2.9168 -0.0305
8.8200 2.9235 -0.0331
8.8400 2.9302 -0.0244
8.8600 2.9368 -0.0322
8.8800 2.9434 -0.0348
8.9000 2.9500 -0.0262
8.9200 2.9567 -0.0345
8.9400 2.9634 -0.0340
8.9600 2.9701 -0.0280
8.9800 2.9768 -0.0364
9.0000 2.9835 -0.0353
9.0200 2.9902 -0.0321
9.0400 2.9968 -0.0334
9.0600 3.0034 -0.0311
9.0800 3.0101 -0.0344
9.1000 3.0168 -0.0325
9.1200 3.0235 -0.0297
9.1400 3.0302 -0.0358
9.1600 3.0369 -0.0322
9.1800 3.0436 -0.0318
9.2000 3.0502 -0.0371
9.2200 3.0569 -0.0334
9.2400 3.0634 -0.0323
9.2600 3.0701 -0.0380
9.2800 3.0768 -0.0312
9.3000 3.0835 -0.0374
9.3200 3.0902 -0.0385
9.3400 3.0969 -0.0322
9.3600 3.1036 -0.0354
9.3800 3.1102 -0.0419
9.4000 3.1168 -0.0323
9.4200 3.1234 -0.0357
9.4400 3.1300 -0.0397
9.4600 3.1367 -0.0341
9.4800 3.1435 -0.0361
9.5000 3.1501 -0.0388
9.5200 3.1568 -0.0337
9.5400 3.1635 -0.0385
9.5600 3.1702 -0.0366
9.5800 3.1768 -0.0326
9.6000 3.1834 -0.0373
9.6200 3.1901 -0.0390
9.6400 3.1967 -0.0353
9.6600 3.2034 -0.0384
9.6800 3.2101 -0.0423
9.7000 3.2168 -0.0357
9.7200 3.2235 -0.0405
9.7400 3.2301 -0.0398
9.7600 3.2368 -0.0427
9.7800 3.2434 -0.0405
9.8000 3.2500 -0.0330
9.8200 3.2567 -0.0401
9.8400 3.2635 -0.0407
9.8600 3.2702 -0.0380
9.8800 3.2769 -0.0380
9.9000 3.2836 -0.0433
9.9200 3.2902 -0.0384
9.9400 3.2968 -0.0370
9.9600 3.3034 -0.0470
9.9800 3.3100 -0.0315
10.0000 3.3168 -0.0431
10.0200 3.3235 -0.0444
10.0400 3.3302 -0.0404
10.0600 3.3369 -0.0399
10.0800 3.3435 -0.0448
10.1000 3.3502 -0.0401
10.1200 3.3568 -0.0409
10.1400 3.3634 -0.0444
10.1600 3.3701 -0.0347
10.1800 3.3767 -0.0455
10.2000 3.3834 -0.0436
10.2200 3.3901 -0.0377
10.2400 3.3968 -0.0477
10.2600 3.4035 -0.0422
10.2800 3.4102 -0.0431
10.3000 3.4168 -0.0474
10.3200 3.4234 -0.0419
10.3400 3.4300 -0.0420
10.3600 3.4367 -0.0528
10.3800 3.4434 -0.0430
10.4000 3.4501 -0.0430
10.4200 3.4568 -0.0555
10.4400 3.4635 -0.0397
10.4600 3.4702 -0.0435
10.4800 3.4768 -0.0488
10.5000 3.4834 -0.0461
10.5200 3.4901 -0.0449
10.5400 3.4968 -0.0429
10.5600 3.5035 -0.0422
10.5800 3.5102 -0.0513
10.6000 3.5168 -0.0498
10.6200 3.5235 -0.0431
10.6400 3.5302 -0.0482
10.6600 3.5369 -0.0584
10.6800 3.5435 -0.0443
10.7000 3.5501 -0.0457
10.7200 3.5567 -0.0510
10.7400 3.5634 -0.0488
10.7600 3.5702 -0.0457
10.7800 3.5768 -0.0510
10.8000 3.5835 -0.0491
10.8200 3.5902 -0.0521
10.8400 3.5968 -0.0512
10.8600 3.6034 -0.0477
10.8800 3.6101 -0.0492
10.9000 3.6168 -0.0555
10.9200 3.6235 -0.0498
10.9400 3.6302 -0.0472
10.9600 3.6368 -0.0576
10.9800 3.6435 -0.0538
11.0000 3.6502 -0.0468
11.0200 3.6568 -0.0568
11.0400 3.6634 -0.0497
11.0600 3.6700 -0.0451
11.0800 3.6767 -0.0598
11.1000 3.6834 -0.0471
11.1200 3.6901 -0.0510
11.1400 3.6968 -0.0631
11.1600 3.7035 -0.0447
11.1800 3.7101 -0.0493
11.2000 3.7168 -0.0653
11.2200 3.7234 -0.0479
11.2400 3.7300 -0.0500
11.2600 3.7367 -0.0616
11.2800 3.7434 -0.0456
11.3000 3.7502 -0.0550
11.3200 3.7569 -0.0635
11.3400 3.7636 -0.0414
11.3600 3.7703 -0.0612
11.3800 3.7769 -0.0641
11.4000 3.7835 -0.0455
11.4200 3.7901 -0.0550
11.4400 3.7968 -0.0635
11.4600 3.8035 -0.0502
11.4800 3.8102 -0.0577
11.5000 3.8169 -0.0587
11.5200 3.8235 -0.0536
11.5400 3.8302 -0.0623
11.5600 3.8369 -0.0549
11.5800 3.8435 -0.0551
11.6000 3.8501 -0.0620
11.6200 3.8567 -0.0519
11.6400 3.8634 -0.0571
11.6600 3.8701 -0.0579
11.6800 3.8768 -0.0567
11.7000 3.8835 -0.0564
11.7200 3.8902 -0.0625
11.7400 3.8968 -0.0573
11.7600 3.9034 -0.0613
11.7800 3.9100 -0.0567
11.8000 3.9167 -0.0589
11.8200 3.9234 -0.0637
11.8400 3.9301 -0.0537
11.8600 3.9368 -0.0649
11.8800 3.9435 -0.0635
11.9000 3.9502 -0.0518
11.9200 3.9568 -0.0689
11.9400 3.9634 -0.0638
11.9600 3.9701 -0.0488
11.9800 3.9767 -0.0708
12.0000 3.9835 -0.0642
12.0200 3.9902 -0.0504
12.0400 3.9968 -0.0707
12.0600 4.0035 -0.0677
12.0800 4.0102 -0.0482
12.1000 4.0169 -0.0762
12.1200 4.0235 -0.0623
12.1400 4.0301 -0.0483
12.1600 4.0368 -0.0801
12.1800 4.0435 -0.0601
12.2000 4.0502 -0.0506
12.2200 4.0568 -0.0815
12.2400 4.0635 -0.0559
12.2600 4.0702 -0.0566
12.2800 4.0769 -0.0804
12.3000 4.0835 -0.0598
12.3200 4.0901 -0.0532
12.3400 4.0967 -0.0782
12.3600 4.1034 -0.0578
12.3800 4.1101 -0.0647
12.4000 4.1168 -0.0770
12.4200 4.1235 -0.0575
12.4400 4.1302 -0.0642
12.4600 4.1368 -0.0734
12.4800 4.1434 -0.0636
12.5000 4.1500 -0.0658
12.5200 4.1567 -0.0698
12.5400 4.1634 -0.0634
12.5600 4.1701 -0.0674
12.5800 4.1768 -0.0709
12.6000 4.1835 -0.0621
12.6200 4.1902 -0.0740
12.6400 4.1968 -0.0704
12.6600 4.2035 -0.0633
12.6800 4.2101 -0.0705
12.7000 4.2167 -0.0645
12.7200 4.2234 -0.0697
12.7400 4.2301 -0.0708
12.7600 4.2368 -0.0643
12.7800 4.2435 -0.0665
12.8000 4.2502 -0.0711
12.8200 4.2569 -0.0714
12.8400 4.2635 -0.0750
12.8600 4.2701 -0.0670
12.8800 4.2767 -0.0693
12.9000 4.2834 -0.0756
12.9200 4.2902 -0.0632
12.9400 4.2969 -0.0744
12.9600 4.3035 -0.0829
12.9800 4.3102 -0.0621
13.0000 4.3169 -0.0698
13.0200 4.3235 -0.0773
13.0400 4.3301 -0.0683
13.0600 4.3367 -0.0698
13.0800 4.3435 -0.0744
13.1000 4.3502 -0.0697
13.1200 4.3568 -0.0757
13.1400 4.3635 -0.0707
13.1600 4.3702 -0.0708
13.1800 4.3768 -0.0745
13.2000 4.3835 -0.0796
13.2200 4.3901 -0.0681
13.2400 4.3967 -0.0709
13.2600 4.4034 -0.0788
13.2800 4.4101 -0.0676
13.3000 4.4168 -0.0773
13.3200 4.4235 -0.0740
13.3400 4.4302 -0.0702
13.3600 4.4369 -0.0767
13.3800 4.4435 -0.0754
13.4000 4.4501 -0.0745
13.4200 4.4567 -0.0686
13.4400 4.4634 -0.0799
13.4600 4.4702 -0.0755
13.4800 4.4769 -0.0668
13.5000 4.4835 -0.0790
13.5200 4.4902 -0.0776
13.5400 4.4969 -0.0722
13.5600 4.5035 -0.0707
13.5800 4.5101 -0.0817
13.6000 4.5168 -0.0747
13.6200 4.5235 -0.0768
13.6400 4.5302 -0.0776
13.6600 4.5368 -0.0765
13.6800 4.5435 -0.0772
13.7000 4.5502 -0.0754
13.7200 4.5568 -0.0744
13.7400 4.5635 -0.0808
13.7600 4.5701 -0.0801
13.7800 4.5767 -0.0737
13.8000 4.5834 -0.0759
13.8200 4.5901 -0.0823
13.8400 4.5968 -0.0736
13.8600 4.6035 -0.0750
13.8800 4.6102 -0.0809
13.9000 4.6169 -0.0834
13.9200 4.6235 -0.0782
13.9400 4.6301 -0.0768
13.9600 4.6367 -0.0864
13.9800 4.6434 -0.0770
14.0000 4.6501 -0.0760
14.0200 4.6568 -0.0854
14.0400 4.6635 -0.0809
14.0600 4.6702 -0.0797
14.0800 4.6768 -0.0826
14.1000 4.6835 -0.0793
14.1200 4.6901 -0.0850
14.1400 4.6967 -0.0847
14.1600 4.7034 -0.0794
14.1800 4.7101 -0.0766
14.2000 4.7168 -0.0851
14.2200 4.7235 -0.0810
14.2400 4.7302 -0.0829
14.2600 4.7368 -0.0846
14.2800 4.7435 -0.0779
14.3000 4.7501 -0.0860
14.3200 4.7567 -0.0865
14.3400 4.7634 -0.0779
14.3600 4.7702 -0.0859
14.3800 4.7769 -0.0869
14.4000 4.7836 -0.0803
14.4200 4.7903 -0.0834
14.4400 4.7969 -0.0884
14.4600 4.8035 -0.0846
14.4800 4.8101 -0.0888
14.5000 4.8167 -0.0797
14.5200 4.8234 -0.0885
14.5400 4.8301 -0.0926
14.5600 4.8368 -0.0807
14.5800 4.8435 -0.0846
14.6000 4.8501 -0.0934
14.6200 4.8568 -0.0852
14.6400 4.8635 -0.0876
14.6600 4.8701 -0.0930
14.6800 4.8767 -0.0845
14.7000 4.8834 -0.0871
14.7200 4.8901 -0.0956
14.7400 4.8968 -0.0865
14.7600 4.9035 -0.0874
14.7800 4.9101 -0.0912
14.8000 4.9168 -0.0869
14.8200 4.9235 -0.0942
14.8400 4.9301 -0.0911
14.8600 4.9367 -0.0848
14.8800 4.9434 -0.0945
14.9000 4.9501 -0.0931
14.9200 4.9568 -0.0882
14.9400 4.9635 -0.0879
14.9600 4.9702 -0.0945
14.9800 4.9769 -0.0932
15.0000 4.9835 -0.0909
15.0200 4.9901 -0.0950
15.0400 4.9967 -0.0879
15.0600 5.0034 -0.0982
15.0800 5.0101 -0.0924
15.1000 5.0168 -0.0906
15.1200 5.0234 -0.0924
15.1400 5.0301 -0.0982
15.1600 5.0368 -0.0911
15.1800 5.0435 -0.0925
15.2000 5.0501 -0.0979
15.2200 5.0568 -0.0874
15.2400 5.0635 -0.0952
15.2600 5.0702 -0.0993
15.2800 5.0768 -0.0858
15.3000 5.0835 -0.0958
15.3200 5.0902 -0.1047
15.3400 5.0969 -0.0883
15.3600 5.1035 -0.0949
15.3800 5.1101 -0.1072
15.4000 5.1167 -0.0888
15.4200 5.1233 -0.0962
15.4400 5.1301 -0.1037
15.4600 5.1368 -0.0881
15.4800 5.1435 -0.1026
15.5000 5.1501 -0.1008
15.5200 5.1568 -0.0919
15.5400 5.1635 -0.1047
15.5600 5.1701 -0.0995
15.5800 5.1767 -0.0863
15.6000 5.1834 -0.1065
15.6200 5.1901 -0.1025
15.6400 5.1968 -0.0915
15.6600 5.2035 -0.1040
15.6800 5.2102 -0.0993
15.7000 5.2169 -0.0956
15.7200 5.2235 -0.1086
15.7400 5.2302 -0.0964
15.7600 5.2368 -0.0966
15.7800 5.2435 -0.1028
15.8000 5.2502 -0.1011
15.8200 5.2569 -0.0948
15.8400 5.2635 -0.1032
15.8600 5.2702 -0.0997
15.8800 5.2769 -0.0984
15.9000 5.2835 -0.1014
15.9200 5.2901 -0.1040
15.9400 5.2967 -0.1018
15.9600 5.3034 -0.0946
15.9800 5.3101 -0.1040
16.0000 5.3168 -0.1059
16.0200 5.3235 -0.0948
16.0400 5.3302 -0.1067
16.0600 5.3368 -0.1030
16.0800 5.3435 -0.0946
16.1000 5.3501 -0.1098
16.1200 5.3567 -0.1028
16.1400 5.3634 -0.0928
16.1600 5.3701 -0.1088
16.1800 5.3768 -0.1055
16.2000 5.3835 -0.0951
16.2200 5.3902 -0.1111
16.2400 5.3968 -0.0993
16.2600 5.4035 -0.0986
16.2800 5.4102 -0.1151
16.3000 5.4168 -0.1018
16.3200 5.4234 -0.0949
16.3400 5.4301 -0.1174
16.3600 5.4368 -0.1008
16.3800 5.4435 -0.0995
16.4000 5.4502 -0.1128
16.4200 5.4569 -0.0995
16.4400 5.4635 -0.1072
16.4600 5.4701 -0.1115
16.4800 5.4767 -0.0912
16.5000 5.4834 -0.1052
16.5200 5.4901 -0.1112
16.5400 5.4968 -0.1011
16.5600 5.5035 -0.1038
16.5800 5.5102 -0.1076
16.6000 5.5169 -0.1029
16.6200 5.5235 -0.1132
16.6400 5.5301 -0.1073
16.6600 5.5367 -0.1014
16.6800 5.5434 -0.1100
16.7000 5.5500 -0.1104
16.7200 5.5567 -0.0987
16.7400 5.5634 -0.1099
16.7600 5.5701 -0.1102
16.7800 5.5768 -0.0959
16.8000 5.5835 -0.1072
16.8200 5.5902 -0.1175
16.8400 5.5968 -0.1073
16.8600 5.6034 -0.1013
16.8800 5.6101 -0.1123
16.9000 5.6168 -0.1005
16.9200 5.6235 -0.1090
16.9400 5.6302 -0.1216
16.9600 5.6369 -0.1008
16.9800 5.6435 -0.1071
17.0000 5.6501 -0.1186
17.0200 5.6567 -0.1016
17.0400 5.6634 -0.1076
17.0600 5.6701 -0.1164
17.0800 5.6768 -0.1017
17.1000 5.6835 -0.1068
17.1200 5.6902 -0.1174
17.1400 5.6969 -0.1042
17.1600 5.7035 -0.1191
17.1800 5.7101 -0.1089
17.2000 5.7167 -0.0960
17.2200 5.7234 -0.1204
17.2400 5.7301 -0.1153
17.2600 5.7368 -0.0988
17.2800 5.7435 -0.1156
