Raw Data
Time Displacement Force
(s) (mm) (N)
0.0000 0.0000 -0.1089
0.0200 0.0000 -0.1018
0.0400 0.0008 -0.0800
0.0600 0.0039 -0.0424
0.0800 0.0093 -0.0505
0.1000 0.0150 -0.0365
0.1200 0.0209 0.0370
0.1400 0.0275 0.0622
0.1600 0.0349 0.0983
0.1800 0.0424 0.1482
0.2000 0.0496 0.1666
0.2200 0.0564 0.1625
0.2400 0.0631 0.1720
0.2600 0.0698 0.1737
0.2800 0.0765 0.1709
0.3000 0.0832 0.1727
0.3200 0.0899 0.1720
0.3400 0.0966 0.1769
0.3600 0.1033 0.1693
0.3800 0.1099 0.1697
0.4000 0.1166 0.1802
0.4200 0.1233 0.1735
0.4400 0.1300 0.1741
0.4600 0.1367 0.1735
0.4800 0.1433 0.1768
0.5000 0.1500 0.1836
0.5200 0.1567 0.1719
0.5400 0.1633 0.1758
0.5600 0.1699 0.1861
0.5800 0.1766 0.1712
0.6000 0.1832 0.1821
0.6200 0.1900 0.1899
0.6400 0.1967 0.1721
0.6600 0.2033 0.1834
0.6800 0.2100 0.1914
0.7000 0.2167 0.1717
0.7200 0.2233 0.1874
0.7400 0.2299 0.1875
0.7600 0.2366 0.1748
0.7800 0.2432 0.1878
0.8000 0.2499 0.1816
0.8200 0.2566 0.1802
0.8400 0.2633 0.1893
0.8600 0.2700 0.1785
0.8800 0.2767 0.1740
0.9000 0.2833 0.1916
0.9200 0.2899 0.1769
0.9400 0.2965 0.1776
0.9600 0.3032 0.1894
0.9800 0.3099 0.1709
1.0000 0.3166 0.1765
1.0200 0.3233 0.1872
1.0400 0.3299 0.1695
1.0600 0.3366 0.1769
1.0800 0.3433 0.1815
1.1000 0.3499 0.1706
1.1200 0.3565 0.1762
1.1400 0.3632 0.1800
1.1600 0.3700 0.1690
1.1800 0.3767 0.1679
1.2000 0.3833 0.1698
1.2200 0.3900 0.1724
1.2400 0.3967 0.1675
1.2600 0.4034 0.1643
1.2800 0.4100 0.1644
1.3000 0.4166 0.1672
1.3200 0.4233 0.1601
1.3400 0.4300 0.1585
1.3600 0.4367 0.1614
1.3800 0.4433 0.1564
1.4000 0.4500 0.1627
1.4200 0.4567 0.1540
1.4400 0.4633 0.1549
1.4600 0.4699 0.1593
1.4800 0.4765 0.1490
1.5000 0.4832 0.1515
1.5200 0.4899 0.1599
1.5400 0.4966 0.1462
1.5600 0.5033 0.1441
1.5800 0.5100 0.1536
1.6000 0.5167 0.1458
1.6200 0.5233 0.1423
1.6400 0.5299 0.1501
1.6600 0.5365 0.1453
1.6800 0.5432 0.1427
1.7000 0.5499 0.1429
1.7200 0.5566 0.1395
1.7400 0.5633 0.1392
1.7600 0.5700 0.1419
1.7800 0.5767 0.1325
1.8000 0.5833 0.1328
1.8200 0.5899 0.1350
1.8400 0.5966 0.1363
1.8600 0.6033 0.1263
1.8800 0.6099 0.1333
1.9000 0.6166 0.1260
1.9200 0.6233 0.1254
1.9400 0.6300 0.1316
1.9600 0.6367 0.1222
1.9800 0.6434 0.1246
2.0000 0.6499 0.1279
2.0200 0.6565 0.1207
2.0400 0.6632 0.1205
2.0600 0.6699 0.1241
2.0800 0.6767 0.1160
2.1000 0.6833 0.1149
2.1200 0.6900 0.1191
2.1400 0.6967 0.1120
2.1600 0.7033 0.1163
2.1800 0.7099 0.1232
2.2000 0.7165 0.1092
2.2200 0.7232 0.1133
2.2400 0.7299 0.1155
2.2600 0.7366 0.1064
2.2800 0.7433 0.1073
2.3000 0.7500 0.1157
2.3200 0.7567 0.1014
2.3400 0.7633 0.1032
2.3600 0.7699 0.1042
2.3800 0.7765 0.1005
2.4000 0.7832 0.1062
2.4200 0.7899 0.1030
2.4400 0.7966 0.1019
2.4600 0.8033 0.1018
2.4800 0.8100 0.0997
2.5000 0.8167 0.0983
2.5200 0.8233 0.0928
2.5400 0.8300 0.1023
2.5600 0.8366 0.0958
2.5800 0.8432 0.0939
2.6000 0.8500 0.1002
2.6200 0.8567 0.0907
2.6400 0.8634 0.0921
2.6600 0.8700 0.0929
2.6800 0.8767 0.0878
2.7000 0.8833 0.0897
2.7200 0.8899 0.0910
2.7400 0.8966 0.0869
2.7600 0.9032 0.0827
2.7800 0.9100 0.0950
2.8000 0.9167 0.0815
2.8200 0.9234 0.0807
2.8400 0.9300 0.0914
2.8600 0.9367 0.0832
2.8800 0.9433 0.0785
2.9000 0.9499 0.0864
2.9200 0.9565 0.0854
2.9400 0.9632 0.0809
2.9600 0.9699 0.0857
2.9800 0.9766 0.0806
3.0000 0.9833 0.0802
3.0200 0.9900 0.0788
3.0400 0.9967 0.0761
3.0600 1.0033 0.0781
3.0800 1.0099 0.0765
3.1000 1.0165 0.0766
3.1200 1.0232 0.0837
3.1400 1.0299 0.0727
3.1600 1.0366 0.0770
3.1800 1.0433 0.0743
3.2000 1.0500 0.0688
3.2200 1.0567 0.0767
3.2400 1.0633 0.0738
3.2600 1.0699 0.0680
3.2800 1.0766 0.0732
3.3000 1.0832 0.0730
3.3200 1.0899 0.0684
3.3400 1.0967 0.0697
3.3600 1.1033 0.0692
3.3800 1.1100 0.0598
3.4000 1.1167 0.0697
3.4200 1.1234 0.0628
3.4400 1.1300 0.0599
3.4600 1.1366 0.0669
3.4800 1.1433 0.0613
3.5000 1.1499 0.0597
3.5200 1.1566 0.0611
3.5400 1.1633 0.0562
3.5600 1.1700 0.0553
3.5800 1.1767 0.0587
3.6000 1.1834 0.0508
3.6200 1.1900 0.0553
3.6400 1.1966 0.0581
3.6600 1.2032 0.0488
3.6800 1.2099 0.0553
3.7000 1.2166 0.0547
3.7200 1.2233 0.0455
3.7400 1.2300 0.0536
3.7600 1.2367 0.0494
3.7800 1.2433 0.0466
3.8000 1.2499 0.0488
3.8200 1.2565 0.0460
3.8400 1.2632 0.0432
3.8600 1.2699 0.0512
3.8800 1.2766 0.0402
3.9000 1.2833 0.0358
3.9200 1.2900 0.0517
3.9400 1.2967 0.0384
3.9600 1.3033 0.0351
3.9800 1.3100 0.0471
4.0000 1.3166 0.0304
4.0200 1.3232 0.0366
4.0400 1.3299 0.0444
4.0600 1.3366 0.0350
4.0800 1.3433 0.0351
4.1000 1.3500 0.0438
4.1200 1.3567 0.0270
4.1400 1.3633 0.0328
4.1600 1.3700 0.0401
4.1800 1.3766 0.0271
4.2000 1.3832 0.0372
4.2200 1.3899 0.0351
4.2400 1.3967 0.0223
4.2600 1.4034 0.0356
4.2800 1.4100 0.0303
4.3000 1.4167 0.0189
4.3200 1.4234 0.0308
4.3400 1.4300 0.0287
4.3600 1.4366 0.0141
4.3800 1.4432 0.0348
4.4000 1.4499 0.0301
4.4200 1.4566 0.0108
4.4400 1.4633 0.0303
4.4600 1.4700 0.0247
4.4800 1.4767 0.0142
4.5000 1.4833 0.0273
4.5200 1.4900 0.0206
4.5400 1.4966 0.0135
4.5600 1.5032 0.0307
4.5800 1.5099 0.0144
4.6000 1.5166 0.0159
4.6200 1.5233 0.0263
4.6400 1.5300 0.0086
4.6600 1.5367 0.0139
4.6800 1.5433 0.0252
4.7000 1.5500 0.0069
4.7200 1.5566 0.0211
4.7400 1.5632 0.0195
4.7600 1.5699 0.0034
4.7800 1.5767 0.0156
4.8000 1.5834 0.0154
4.8200 1.5900 0.0037
4.8400 1.5967 0.0139
4.8600 1.6034 0.0076
4.8800 1.6100 0.0058
4.9000 1.6166 0.0122
4.9200 1.6232 0.0086
4.9400 1.6299 0.0083
4.9600 1.6366 0.0090
4.9800 1.6433 0.0015
5.0000 1.6500 0.0087
5.0200 1.6567 0.0058
5.0400 1.6634 0.0014
5.0600 1.6700 0.0057
5.0800 1.6766 0.0022
5.1000 1.6832 0.0017
5.1200 1.6899 0.0079
5.1400 1.6966 -0.0022
5.1600 1.7033 0.0006
5.1800 1.7100 0.0042
5.2000 1.7167 -0.0095
5.2200 1.7234 0.0050
5.2400 1.7300 -0.0017
5.2600 1.7366 -0.0157
5.2800 1.7432 0.0058
5.3000 1.7499 -0.0081
5.3200 1.7566 -0.0173
5.3400 1.7633 0.0034
5.3600 1.7700 -0.0151
5.3800 1.7766 -0.0107
5.4000 1.7833 0.0021
5.4200 1.7900 -0.0157
5.4400 1.7966 -0.0158
5.4600 1.8032 0.0007
5.4800 1.8099 -0.0184
5.5000 1.8166 -0.0171
5.5200 1.8233 -0.0041
5.5400 1.8300 -0.0214
5.5600 1.8367 -0.0124
5.5800 1.8434 -0.0070
5.6000 1.8500 -0.0257
5.6200 1.8566 -0.0142
5.6400 1.8632 -0.0129
5.6600 1.8699 -0.0274
5.6800 1.8766 -0.0189
5.7000 1.8833 -0.0107
5.7200 1.8900 -0.0314
5.7400 1.8967 -0.0199
5.7600 1.9033 -0.0224
5.7800 1.9100 -0.0321
5.8000 1.9166 -0.0178
5.8200 1.9232 -0.0262
5.8400 1.9299 -0.0310
5.8600 1.9366 -0.0216
5.8800 1.9433 -0.0291
5.9000 1.9499 -0.0317
5.9200 1.9566 -0.0236
5.9400 1.9633 -0.0345
5.9600 1.9699 -0.0304
5.9800 1.9765 -0.0302
6.0000 1.9832 -0.0359
6.0200 1.9899 -0.0285
6.0400 1.9966 -0.0315
6.0600 2.0033 -0.0444
6.0800 2.0100 -0.0344
6.1000 2.0167 -0.0301
6.1200 2.0234 -0.0419
6.1400 2.0300 -0.0409
6.1600 2.0366 -0.0385
6.1800 2.0432 -0.0405
6.2000 2.0499 -0.0368
6.2200 2.0566 -0.0435
6.2400 2.0633 -0.0429
6.2600 2.0700 -0.0371
6.2800 2.0767 -0.0451
6.3000 2.0833 -0.0529
6.3200 2.0900 -0.0376
6.3400 2.0966 -0.0455
6.3600 2.1032 -0.0462
6.3800 2.1099 -0.0430
6.4000 2.1166 -0.0536
6.4200 2.1233 -0.0497
6.4400 2.1300 -0.0451
6.4600 2.1367 -0.0528
6.4800 2.1434 -0.0479
6.5000 2.1500 -0.0491
6.5200 2.1566 -0.0557
6.5400 2.1632 -0.0504
6.5600 2.1699 -0.0507
6.5800 2.1766 -0.0586
6.6000 2.1833 -0.0516
6.6200 2.1900 -0.0550
6.6400 2.1967 -0.0628
6.6600 2.2034 -0.0515
6.6800 2.2100 -0.0597
6.7000 2.2166 -0.0609
6.7200 2.2232 -0.0519
6.7400 2.2298 -0.0582
6.7600 2.2365 -0.0641
6.7800 2.2432 -0.0532
6.8000 2.2499 -0.0631
6.8200 2.2566 -0.0645
6.8400 2.2633 -0.0594
6.8600 2.2700 -0.0629
6.8800 2.2766 -0.0702
6.9000 2.2832 -0.0622
6.9200 2.2899 -0.0628
6.9400 2.2966 -0.0695
6.9600 2.3033 -0.0642
6.9800 2.3100 -0.0673
7.0000 2.3167 -0.0692
7.0200 2.3234 -0.0608
7.0400 2.3300 -0.0745
7.0600 2.3366 -0.0754
7.0800 2.3432 -0.0616
7.1000 2.3499 -0.0661
7.1200 2.3566 -0.0766
7.1400 2.3633 -0.0691
7.1600 2.3700 -0.0733
7.1800 2.3767 -0.0794
7.2000 2.3834 -0.0674
7.2200 2.3900 -0.0725
7.2400 2.3966 -0.0828
7.2600 2.4032 -0.0711
7.2800 2.4099 -0.0789
7.3000 2.4166 -0.0794
7.3200 2.4233 -0.0717
7.3400 2.4300 -0.0793
7.3600 2.4367 -0.0853
7.3800 2.4433 -0.0786
7.4000 2.4500 -0.0770
7.4200 2.4566 -0.0851
7.4400 2.4632 -0.0743
7.4600 2.4699 -0.0828
7.4800 2.4766 -0.0861
7.5000 2.4833 -0.0830
7.5200 2.4899 -0.0781
7.5400 2.4966 -0.0823
7.5600 2.5033 -0.0891
7.5800 2.5100 -0.0860
7.6000 2.5166 -0.0876
7.6200 2.5232 -0.0839
7.6400 2.5299 -0.0830
7.6600 2.5366 -0.0968
7.6800 2.5433 -0.0893
7.7000 2.5500 -0.0889
7.7200 2.5567 -0.0930
7.7400 2.5634 -0.0945
7.7600 2.5700 -0.0901
7.7800 2.5766 -0.0937
7.8000 2.5832 -0.0971
7.8200 2.5899 -0.0893
7.8400 2.5966 -0.0963
7.8600 2.6033 -0.0988
7.8800 2.6100 -0.0953
7.9000 2.6167 -0.1015
7.9200 2.6233 -0.0968
7.9400 2.6300 -0.0966
7.9600 2.6366 -0.1026
7.9800 2.6432 -0.1004
8.0000 2.6499 -0.0959
8.0200 2.6566 -0.1030
8.0400 2.6633 -0.1089
8.0600 2.6700 -0.0979
8.0800 2.6767 -0.1046
8.1000 2.6833 -0.1044
8.1200 2.6900 -0.1045
8.1400 2.6966 -0.1088
8.1600 2.7032 -0.1048
8.1800 2.7098 -0.1041
8.2000 2.7166 -0.1103
8.2200 2.7233 -0.1090
8.2400 2.7300 -0.1105
8.2600 2.7367 -0.1126
8.2800 2.7434 -0.1125
8.3000 2.7500 -0.1127
8.3200 2.7566 -0.1129
8.3400 2.7632 -0.1065
8.3600 2.7699 -0.1207
8.3800 2.7766 -0.1179
8.4000 2.7833 -0.1079
8.4200 2.7899 -0.1228
8.4400 2.7966 -0.1168
8.4600 2.8033 -0.1148
8.4800 2.8100 -0.1208
8.5000 2.8167 -0.1126
8.5200 2.8233 -0.1241
8.5400 2.8299 -0.1194
8.5600 2.8366 -0.1112
8.5800 2.8433 -0.1293
8.6000 2.8500 -0.1234
8.6200 2.8567 -0.1134
8.6400 2.8634 -0.1301
8.6600 2.8700 -0.1232
8.6800 2.8767 -0.1199
8.7000 2.8833 -0.1319
8.7200 2.8899 -0.1171
8.7400 2.8966 -0.1239
8.7600 2.9033 -0.1367
8.7800 2.9100 -0.1200
8.8000 2.9167 -0.1239
8.8200 2.9233 -0.1349
8.8400 2.9300 -0.1258
8.8600 2.9366 -0.1255
8.8800 2.9432 -0.1312
8.9000 2.9498 -0.1282
8.9200 2.9565 -0.1288
8.9400 2.9632 -0.1385
8.9600 2.9699 -0.1189
8.9800 2.9766 -0.1319
9.0000 2.9833 -0.1415
9.0200 2.9900 -0.1237
9.0400 2.9966 -0.1348
9.0600 3.0032 -0.1404
9.0800 3.0099 -0.1218
9.1000 3.0166 -0.1353
9.1200 3.0233 -0.1401
9.1400 3.0300 -0.1276
9.1600 3.0367 -0.1361
9.1800 3.0434 -0.1412
9.2000 3.0500 -0.1271
9.2200 3.0567 -0.1420
9.2400 3.0633 -0.1402
9.2600 3.0699 -0.1297
9.2800 3.0766 -0.1421
9.3000 3.0833 -0.1415
9.3200 3.0900 -0.1330
9.3400 3.0967 -0.1431
9.3600 3.1034 -0.1381
9.3800 3.1100 -0.1376
9.4000 3.1166 -0.1441
9.4200 3.1232 -0.1374
9.4400 3.1299 -0.1383
9.4600 3.1366 -0.1437
9.4800 3.1433 -0.1388
9.5000 3.1500 -0.1375
9.5200 3.1566 -0.1428
9.5400 3.1633 -0.1387
9.5600 3.1700 -0.1421
9.5800 3.1767 -0.1454
9.6000 3.1833 -0.1399
9.6200 3.1899 -0.1451
9.6400 3.1966 -0.1448
9.6600 3.2033 -0.1442
9.6800 3.2099 -0.1459
9.7000 3.2166 -0.1448
9.7200 3.2233 -0.1450
9.7400 3.2300 -0.1496
9.7600 3.2366 -0.1487
9.7800 3.2432 -0.1435
9.8000 3.2499 -0.1514
9.8200 3.2566 -0.1488
9.8400 3.2633 -0.1518
9.8600 3.2700 -0.1537
9.8800 3.2767 -0.1492
9.9000 3.2834 -0.1514
9.9200 3.2900 -0.1546
9.9400 3.2967 -0.1510
9.9600 3.3032 -0.1556
9.9800 3.3099 -0.1522
10.0000 3.3166 -0.1524
10.0200 3.3233 -0.1549
10.0400 3.3300 -0.1588
10.0600 3.3367 -0.1563
10.0800 3.3434 -0.1582
10.1000 3.3500 -0.1576
10.1200 3.3566 -0.1575
10.1400 3.3633 -0.1547
10.1600 3.3699 -0.1577
10.1800 3.3766 -0.1636
10.2000 3.3833 -0.1556
10.2200 3.3900 -0.1615
10.2400 3.3966 -0.1635
10.2600 3.4033 -0.1539
10.2800 3.4100 -0.1674
10.3000 3.4166 -0.1661
10.3200 3.4232 -0.1567
10.3400 3.4298 -0.1674
10.3600 3.4365 -0.1684
10.3800 3.4432 -0.1616
10.4000 3.4500 -0.1704
10.4200 3.4566 -0.1682
10.4400 3.4633 -0.1628
10.4600 3.4700 -0.1755
10.4800 3.4767 -0.1669
10.5000 3.4833 -0.1667
10.5200 3.4899 -0.1768
10.5400 3.4966 -0.1669
10.5600 3.5033 -0.1702
10.5800 3.5100 -0.1779
10.6000 3.5167 -0.1693
10.6200 3.5233 -0.1732
10.6400 3.5300 -0.1790
10.6600 3.5367 -0.1729
10.6800 3.5433 -0.1785
10.7000 3.5499 -0.1837
10.7200 3.5565 -0.1694
10.7400 3.5633 -0.1795
10.7600 3.5700 -0.1858
10.7800 3.5767 -0.1713
10.8000 3.5833 -0.1817
10.8200 3.5900 -0.1854
10.8400 3.5966 -0.1758
10.8600 3.6032 -0.1834
10.8800 3.6099 -0.1835
10.9000 3.6166 -0.1772
10.9200 3.6233 -0.1860
10.9400 3.6300 -0.1842
10.9600 3.6367 -0.1796
10.9800 3.6433 -0.1888
11.0000 3.6500 -0.1866
11.0200 3.6566 -0.1783
11.0400 3.6632 -0.1965
11.0600 3.6699 -0.1883
11.0800 3.6765 -0.1836
11.1000 3.6832 -0.1924
11.1200 3.6899 -0.1871
11.1400 3.6966 -0.1874
11.1600 3.7033 -0.1935
11.1800 3.7100 -0.1900
11.2000 3.7166 -0.1902
11.2200 3.7233 -0.1898
11.2400 3.7299 -0.1922
11.2600 3.7365 -0.1919
11.2800 3.7433 -0.1938
11.3000 3.7500 -0.1991
11.3200 3.7567 -0.1929
11.3400 3.7634 -0.1929
11.3600 3.7701 -0.1989
11.3800 3.7767 -0.1944
11.4000 3.7833 -0.1950
11.4200 3.7899 -0.1989
11.4400 3.7966 -0.1885
11.4600 3.8033 -0.1971
11.4800 3.8100 -0.2106
11.5000 3.8167 -0.1872
11.5200 3.8234 -0.2004
11.5400 3.8300 -0.2061
11.5600 3.8367 -0.1889
11.5800 3.8433 -0.2013
11.6000 3.8499 -0.2094
11.6200 3.8565 -0.1930
11.6400 3.8632 -0.2014
11.6600 3.8699 -0.2103
11.6800 3.8766 -0.1921
11.7000 3.8833 -0.2063
11.7200 3.8900 -0.2138
11.7400 3.8967 -0.1938
11.7600 3.9033 -0.2095
11.7800 3.9099 -0.2139
11.8000 3.9165 -0.1926
11.8200 3.9232 -0.2105
11.8400 3.9299 -0.2153
11.8600 3.9366 -0.1997
11.8800 3.9433 -0.2066
11.9000 3.9500 -0.2173
11.9200 3.9566 -0.2060
11.9400 3.9632 -0.2105
11.9600 3.9699 -0.2089
11.9800 3.9766 -0.2095
12.0000 3.9833 -0.2146
12.0200 3.9900 -0.2130
12.0400 3.9967 -0.2118
12.0600 4.0033 -0.2127
12.0800 4.0100 -0.2131
12.1000 4.0167 -0.2169
12.1200 4.0233 -0.2077
12.1400 4.0299 -0.2110
12.1600 4.0366 -0.2189
12.1800 4.0433 -0.2139
12.2000 4.0500 -0.2161
12.2200 4.0567 -0.2214
12.2400 4.0633 -0.2130
12.2600 4.0700 -0.2201
12.2800 4.0767 -0.2168
12.3000 4.0833 -0.2108
12.3200 4.0899 -0.2262
12.3400 4.0965 -0.2193
12.3600 4.1032 -0.2127
12.3800 4.1099 -0.2317
12.4000 4.1166 -0.2222
12.4200 4.1233 -0.2110
12.4400 4.1300 -0.2278
12.4600 4.1366 -0.2229
12.4800 4.1432 -0.2188
12.5000 4.1499 -0.2249
12.5200 4.1565 -0.2256
12.5400 4.1633 -0.2240
12.5600 4.1700 -0.2307
12.5800 4.1766 -0.2263
12.6000 4.1833 -0.2212
12.6200 4.1900 -0.2347
12.6400 4.1967 -0.2255
12.6600 4.2033 -0.2231
12.6800 4.2099 -0.2402
12.7000 4.2166 -0.2215
12.7200 4.2233 -0.2265
12.7400 4.2300 -0.2340
12.7600 4.2366 -0.2287
12.7800 4.2433 -0.2304
12.8000 4.2500 -0.2310
12.8200 4.2567 -0.2288
12.8400 4.2633 -0.2346
12.8600 4.2699 -0.2324
12.8800 4.2765 -0.2292
12.9000 4.2833 -0.2345
12.9200 4.2900 -0.2362
12.9400 4.2967 -0.2310
12.9600 4.3034 -0.2380
12.9800 4.3100 -0.2342
13.0000 4.3167 -0.2357
13.0200 4.3233 -0.2349
13.0400 4.3299 -0.2324
13.0600 4.3366 -0.2405
13.0800 4.3433 -0.2345
13.1000 4.3500 -0.2374
13.1200 4.3567 -0.2437
13.1400 4.3633 -0.2327
13.1600 4.3700 -0.2348
13.1800 4.3767 -0.2418
13.2000 4.3833 -0.2368
13.2200 4.3899 -0.2384
13.2400 4.3965 -0.2424
13.2600 4.4032 -0.2322
13.2800 4.4099 -0.2436
13.3000 4.4166 -0.2483
13.3200 4.4233 -0.2303
13.3400 4.4300 -0.2450
13.3600 4.4367 -0.2453
13.3800 4.4433 -0.2345
13.4000 4.4499 -0.2479
13.4200 4.4565 -0.2470
13.4400 4.4632 -0.2382
13.4600 4.4700 -0.2433
13.4800 4.4767 -0.2498
13.5000 4.4834 -0.2410
13.5200 4.4901 -0.2449
13.5400 4.4967 -0.2517
13.5600 4.5033 -0.2410
13.5800 4.5099 -0.2537
13.6000 4.5166 -0.2497
13.6200 4.5233 -0.2432
13.6400 4.5300 -0.2540
13.6600 4.5367 -0.2508
13.6800 4.5433 -0.2471
13.7000 4.5500 -0.2496
13.7200 4.5567 -0.2542
13.7400 4.5633 -0.2475
13.7600 4.5699 -0.2551
13.7800 4.5765 -0.2516
13.8000 4.5832 -0.2513
13.8200 4.5899 -0.2618
13.8400 4.5966 -0.2483
13.8600 4.6033 -0.2496
13.8800 4.6100 -0.2624
13.9000 4.6167 -0.2554
13.9200 4.6233 -0.2558
13.9400 4.6299 -0.2560
13.9600 4.6365 -0.2595
13.9800 4.6432 -0.2584
14.0000 4.6499 -0.2612
14.0200 4.6566 -0.2573
14.0400 4.6632 -0.2619
14.0600 4.6699 -0.2607
14.0800 4.6766 -0.2565
14.1000 4.6833 -0.2688
14.1200 4.6899 -0.2647
14.1400 4.6966 -0.2564
14.1600 4.7033 -0.2661
14.1800 4.7100 -0.2621
14.2000 4.7167 -0.2670
14.2200 4.7234 -0.2669
14.2400 4.7300 -0.2662
14.2600 4.7367 -0.2656
14.2800 4.7434 -0.2687
14.3000 4.7500 -0.2637
14.3200 4.7566 -0.2667
14.3400 4.7632 -0.2735
14.3600 4.7700 -0.2660
14.3800 4.7767 -0.2671
14.4000 4.7834 -0.2766
14.4200 4.7901 -0.2697
14.4400 4.7967 -0.2710
14.4600 4.8034 -0.2726
14.4800 4.8099 -0.2712
14.5000 4.8165 -0.2731
14.5200 4.8232 -0.2763
14.5400 4.8299 -0.2711
14.5600 4.8366 -0.2719
14.5800 4.8433 -0.2802
14.6000 4.8500 -0.2736
14.6200 4.8566 -0.2760
14.6400 4.8633 -0.2817
14.6600 4.8699 -0.2741
14.6800 4.8765 -0.2795
14.7000 4.8832 -0.2806
14.7200 4.8899 -0.2786
14.7400 4.8966 -0.2783
14.7600 4.9033 -0.2852
14.7800 4.9100 -0.2812
14.8000 4.9166 -0.2771
14.8200 4.9233 -0.2916
14.8400 4.9299 -0.2771
14.8600 4.9365 -0.2822
14.8800 4.9431 -0.2861
14.9000 4.9499 -0.2814
14.9200 4.9566 -0.2858
14.9400 4.9634 -0.2907
14.9600 4.9701 -0.2844
14.9800 4.9768 -0.2861
15.0000 4.9834 -0.2916
15.0200 4.9899 -0.2808
15.0400 4.9966 -0.2856
15.0600 5.0032 -0.2939
15.0800 5.0100 -0.2826
15.1000 5.0167 -0.2904
15.1200 5.0234 -0.2948
15.1400 5.0300 -0.2818
15.1600 5.0367 -0.2953
15.1800 5.0433 -0.2949
15.2000 5.0499 -0.2855
15.2200 5.0566 -0.2956
15.2400 5.0632 -0.2946
15.2600 5.0700 -0.2866
15.2800 5.0767 -0.2976
15.3000 5.0833 -0.2967
15.3200 5.0900 -0.2883
15.3400 5.0967 -0.2982
15.3600 5.1033 -0.2975
15.3800 5.1099 -0.2878
15.4000 5.1165 -0.3024
15.4200 5.1232 -0.2985
15.4400 5.1299 -0.2894
15.4600 5.1366 -0.3014
15.4800 5.1433 -0.3007
15.5000 5.1500 -0.2870
15.5200 5.1566 -0.3081
15.5400 5.1633 -0.3019
15.5600 5.1699 -0.2957
15.5800 5.1765 -0.3020
15.6000 5.1832 -0.2973
15.6200 5.1899 -0.2992
15.6400 5.1966 -0.3101
15.6600 5.2033 -0.2968
15.6800 5.2099 -0.2981
15.7000 5.2167 -0.3055
15.7200 5.2233 -0.3057
15.7400 5.2300 -0.2988
15.7600 5.2366 -0.3091
15.7800 5.2433 -0.3062
15.8000 5.2500 -0.2965
15.8200 5.2567 -0.3124
15.8400 5.2634 -0.3092
15.8600 5.2701 -0.3039
15.8800 5.2767 -0.3096
15.9000 5.2834 -0.3068
15.9200 5.2899 -0.3062
15.9400 5.2965 -0.3085
15.9600 5.3032 -0.3127
15.9800 5.3099 -0.3046
16.0000 5.3166 -0.3091
16.0200 5.3233 -0.3170
16.0400 5.3300 -0.3036
16.0600 5.3367 -0.3136
16.0800 5.3433 -0.3163
16.1000 5.3499 -0.3064
16.1200 5.3565 -0.3130
16.1400 5.3632 -0.3199
16.1600 5.3700 -0.3052
16.1800 5.3767 -0.3135
16.2000 5.3833 -0.3221
16.2200 5.3900 -0.3046
16.2400 5.3967 -0.3172
16.2600 5.4033 -0.3186
16.2800 5.4100 -0.3082
16.3000 5.4166 -0.3252
16.3200 5.4233 -0.3141
16.3400 5.4300 -0.3169
16.3600 5.4366 -0.3240
16.3800 5.4433 -0.3180
16.4000 5.4500 -0.3134
16.4200 5.4567 -0.3232
16.4400 5.4633 -0.3237
16.4600 5.4699 -0.3171
16.4800 5.4764 -0.3185
16.5000 5.4831 -0.3217
16.5200 5.4899 -0.3193
16.5400 5.4967 -0.3216
16.5600 5.5034 -0.3242
16.5800 5.5101 -0.3190
16.6000 5.5167 -0.3214
16.6200 5.5234 -0.3284
16.6400 5.5300 -0.3190
16.6600 5.5366 -0.3247
16.6800 5.5432 -0.3259
16.7000 5.5499 -0.3204
16.7200 5.5567 -0.3259
16.7400 5.5633 -0.3291
16.7600 5.5700 -0.3214
16.7800 5.5767 -0.3213
16.8000 5.5833 -0.3355
16.8200 5.5900 -0.3261
16.8400 5.5966 -0.3272
16.8600 5.6032 -0.3301
16.8800 5.6099 -0.3254
16.9000 5.6166 -0.3267
16.9200 5.6233 -0.3349
16.9400 5.6300 -0.3257
16.9600 5.6367 -0.3310
16.9800 5.6434 -0.3346
17.0000 5.6500 -0.3248
17.0200 5.6566 -0.3283
17.0400 5.6632 -0.3411
17.0600 5.6700 -0.3263
17.0800 5.6767 -0.3267
17.1000 5.6834 -0.3413
17.1200 5.6900 -0.3322
17.1400 5.6967 -0.3281
17.1600 5.7033 -0.3424
17.1800 5.7100 -0.3325
17.2000 5.7166 -0.3376
17.2200 5.7232 -0.3382
