Raw Data
Time Displacement Force
(s) (mm) (N)
0.0000 0.0000 -1.3883
0.0200 0.0000 -1.3718
0.0400 0.0008 -1.3278
0.0600 0.0040 -1.2833
0.0800 0.0095 -1.3722
0.1000 0.0153 -1.3937
0.1200 0.0211 -1.3477
0.1400 0.0277 -1.3163
0.1600 0.0351 -1.2917
0.1800 0.0425 -1.2664
0.2000 0.0497 -1.2382
0.2200 0.0565 -1.2109
0.2400 0.0632 -1.1734
0.2600 0.0699 -1.1465
0.2800 0.0766 -1.1298
0.3000 0.0833 -1.0917
0.3200 0.0900 -1.0668
0.3400 0.0967 -1.0491
0.3600 0.1034 -1.0262
0.3800 0.1100 -0.9979
0.4000 0.1167 -0.9780
0.4200 0.1233 -0.9487
0.4400 0.1301 -0.9197
0.4600 0.1367 -0.9014
0.4800 0.1434 -0.8709
0.5000 0.1501 -0.8338
0.5200 0.1568 -0.8223
0.5400 0.1634 -0.7846
0.5600 0.1700 -0.7521
0.5800 0.1766 -0.7344
0.6000 0.1833 -0.7060
0.6200 0.1901 -0.6781
0.6400 0.1968 -0.6541
0.6600 0.2034 -0.6219
0.6800 0.2101 -0.5971
0.7000 0.2168 -0.5691
0.7200 0.2234 -0.5348
0.7400 0.2300 -0.5078
0.7600 0.2367 -0.4886
0.7800 0.2433 -0.4652
0.8000 0.2500 -0.4410
0.8200 0.2567 -0.4167
0.8400 0.2634 -0.3921
0.8600 0.2701 -0.3755
0.8800 0.2767 -0.3590
0.9000 0.2834 -0.3386
0.9200 0.2900 -0.3055
0.9400 0.2966 -0.2909
0.9600 0.3033 -0.2735
0.9800 0.3100 -0.2396
1.0000 0.3167 -0.2184
1.0200 0.3234 -0.1914
1.0400 0.3300 -0.1438
1.0600 0.3367 -0.1333
1.0800 0.3433 -0.1276
1.1000 0.3500 -0.1072
1.1200 0.3566 -0.0964
1.1400 0.3633 -0.0897
1.1600 0.3700 -0.0736
1.1800 0.3767 -0.0672
1.2000 0.3834 -0.0669
1.2200 0.3901 -0.0530
1.2400 0.3968 -0.0424
1.2600 0.4034 -0.0344
1.2800 0.4101 -0.0214
1.3000 0.4167 -0.0092
1.3200 0.4234 -0.0434
1.3400 0.4301 -0.0536
1.3600 0.4368 -0.0280
1.3800 0.4434 0.0136
1.4000 0.4501 0.0506
1.4200 0.4568 0.0887
1.4400 0.4634 0.1156
1.4600 0.4700 0.1563
1.4800 0.4766 0.1770
1.5000 0.4833 0.1797
1.5200 0.4900 0.1836
1.5400 0.4967 0.1883
1.5600 0.5034 0.1847
1.5800 0.5100 0.1878
1.6000 0.5167 0.1904
1.6200 0.5234 0.1900
1.6400 0.5300 0.1945
1.6600 0.5366 0.1915
1.6800 0.5433 0.1884
1.7000 0.5500 0.1969
1.7200 0.5567 0.1907
1.7400 0.5634 0.1852
1.7600 0.5700 0.2004
1.7800 0.5767 0.1953
1.8000 0.5834 0.1848
1.8200 0.5900 0.1914
1.8400 0.5967 0.1961
1.8600 0.6033 0.1837
1.8800 0.6100 0.1889
1.9000 0.6167 0.1936
1.9200 0.6234 0.1844
1.9400 0.6301 0.1890
1.9600 0.6368 0.1918
1.9800 0.6434 0.1768
2.0000 0.6500 0.1895
2.0200 0.6566 0.1876
2.0400 0.6633 0.1764
2.0600 0.6700 0.1780
2.0800 0.6768 0.1809
2.1000 0.6834 0.1734
2.1200 0.6901 0.1771
2.1400 0.6967 0.1788
2.1600 0.7034 0.1679
2.1800 0.7100 0.1699
2.2000 0.7166 0.1773
2.2200 0.7233 0.1609
2.2400 0.7300 0.1666
2.2600 0.7367 0.1714
2.2800 0.7434 0.1556
2.3000 0.7501 0.1561
2.3200 0.7567 0.1664
2.3400 0.7634 0.1505
2.3600 0.7700 0.1486
2.3800 0.7766 0.1619
2.4000 0.7833 0.1461
2.4200 0.7900 0.1461
2.4400 0.7967 0.1545
2.4600 0.8034 0.1399
2.4800 0.8100 0.1471
2.5000 0.8168 0.1548
2.5200 0.8234 0.1299
2.5400 0.8301 0.1433
2.5600 0.8367 0.1496
2.5800 0.8433 0.1326
2.6000 0.8500 0.1365
2.6200 0.8568 0.1439
2.6400 0.8635 0.1276
2.6600 0.8701 0.1385
2.6800 0.8768 0.1351
2.7000 0.8834 0.1220
2.7200 0.8900 0.1372
2.7400 0.8967 0.1334
2.7600 0.9033 0.1230
2.7800 0.9101 0.1340
2.8000 0.9168 0.1285
2.8200 0.9234 0.1187
2.8400 0.9301 0.1295
2.8600 0.9368 0.1236
2.8800 0.9434 0.1199
2.9000 0.9501 0.1265
2.9200 0.9566 0.1249
2.9400 0.9633 0.1189
2.9600 0.9700 0.1237
2.9800 0.9767 0.1192
3.0000 0.9834 0.1171
3.0200 0.9901 0.1151
3.0400 0.9968 0.1241
3.0600 1.0034 0.1131
3.0800 1.0100 0.1162
3.1000 1.0166 0.1202
3.1200 1.0232 0.1156
3.1400 1.0300 0.1120
3.1600 1.0367 0.1158
3.1800 1.0434 0.1088
3.2000 1.0500 0.1126
3.2200 1.0567 0.1118
3.2400 1.0634 0.1064
3.2600 1.0700 0.1085
3.2800 1.0767 0.1097
3.3000 1.0833 0.1078
3.3200 1.0900 0.1031
3.3400 1.0967 0.1063
3.3600 1.1034 0.1043
3.3800 1.1101 0.1047
3.4000 1.1168 0.1041
3.4200 1.1235 0.0991
3.4400 1.1301 0.1009
3.4600 1.1367 0.1057
3.4800 1.1433 0.0977
3.5000 1.1500 0.1002
3.5200 1.1567 0.0993
3.5400 1.1634 0.0973
3.5600 1.1701 0.0909
3.5800 1.1768 0.0993
3.6000 1.1834 0.0916
3.6200 1.1900 0.0915
3.6400 1.1966 0.0966
3.6600 1.2033 0.0931
3.6800 1.2100 0.0889
3.7000 1.2167 0.0956
3.7200 1.2234 0.0873
3.7400 1.2301 0.0824
3.7600 1.2367 0.0969
3.7800 1.2434 0.0870
3.8000 1.2500 0.0795
3.8200 1.2566 0.0932
3.8400 1.2633 0.0876
3.8600 1.2700 0.0789
3.8800 1.2767 0.0908
3.9000 1.2834 0.0817
3.9200 1.2900 0.0798
3.9400 1.2967 0.0863
3.9600 1.3034 0.0790
3.9800 1.3101 0.0775
4.0000 1.3167 0.0857
4.0200 1.3233 0.0785
4.0400 1.3300 0.0768
4.0600 1.3367 0.0818
4.0800 1.3434 0.0792
4.1000 1.3501 0.0724
4.1200 1.3568 0.0817
4.1400 1.3634 0.0719
4.1600 1.3701 0.0728
4.1800 1.3767 0.0753
4.2000 1.3833 0.0725
4.2200 1.3900 0.0715
4.2400 1.3967 0.0757
4.2600 1.4034 0.0730
4.2800 1.4101 0.0675
4.3000 1.4168 0.0761
4.3200 1.4235 0.0675
4.3400 1.4301 0.0663
4.3600 1.4367 0.0748
4.3800 1.4433 0.0690
4.4000 1.4500 0.0614
4.4200 1.4567 0.0699
4.4400 1.4634 0.0652
4.4600 1.4700 0.0580
4.4800 1.4767 0.0676
4.5000 1.4834 0.0647
4.5200 1.4900 0.0574
4.5400 1.4966 0.0667
4.5600 1.5033 0.0620
4.5800 1.5100 0.0566
4.6000 1.5167 0.0593
4.6200 1.5234 0.0633
4.6400 1.5301 0.0561
4.6600 1.5367 0.0622
4.6800 1.5434 0.0605
4.7000 1.5500 0.0555
4.7200 1.5567 0.0617
4.7400 1.5633 0.0571
4.7600 1.5700 0.0561
4.7800 1.5768 0.0588
4.8000 1.5835 0.0517
4.8200 1.5901 0.0567
4.8400 1.5968 0.0535
4.8600 1.6035 0.0520
4.8800 1.6101 0.0541
4.9000 1.6167 0.0513
4.9200 1.6233 0.0515
4.9400 1.6300 0.0516
4.9600 1.6367 0.0471
4.9800 1.6434 0.0477
5.0000 1.6501 0.0592
5.0200 1.6568 0.0412
5.0400 1.6634 0.0441
5.0600 1.6701 0.0491
5.0800 1.6767 0.0427
5.1000 1.6833 0.0479
5.1200 1.6900 0.0525
5.1400 1.6967 0.0323
5.1600 1.7034 0.0463
5.1800 1.7101 0.0502
5.2000 1.7168 0.0256
5.2200 1.7235 0.0460
5.2400 1.7301 0.0459
5.2600 1.7366 0.0243
5.2800 1.7433 0.0466
5.3000 1.7500 0.0380
5.3200 1.7567 0.0280
5.3400 1.7634 0.0513
5.3600 1.7700 0.0313
5.3800 1.7767 0.0214
5.4000 1.7834 0.0496
5.4200 1.7900 0.0267
5.4400 1.7967 0.0201
5.4600 1.8033 0.0487
5.4800 1.8100 0.0245
5.5000 1.8167 0.0222
5.5200 1.8234 0.0407
5.5400 1.8301 0.0243
5.5600 1.8368 0.0193
5.5800 1.8435 0.0370
5.6000 1.8501 0.0148
5.6200 1.8567 0.0247
5.6400 1.8633 0.0331
5.6600 1.8700 0.0159
5.6800 1.8767 0.0164
5.7000 1.8834 0.0274
5.7200 1.8901 0.0147
5.7400 1.8968 0.0221
5.7600 1.9034 0.0193
5.7800 1.9101 0.0153
5.8000 1.9167 0.0217
5.8200 1.9233 0.0170
5.8400 1.9300 0.0143
5.8600 1.9367 0.0187
5.8800 1.9434 0.0156
5.9000 1.9500 0.0112
5.9200 1.9567 0.0154
5.9400 1.9634 0.0109
5.9600 1.9700 0.0185
5.9800 1.9767 0.0106
6.0000 1.9833 0.0107
6.0200 1.9900 0.0158
6.0400 1.9967 0.0082
6.0600 2.0034 0.0099
6.0800 2.0100 0.0119
6.1000 2.0167 0.0068
6.1200 2.0235 0.0103
6.1400 2.0301 0.0112
6.1600 2.0367 0.0035
6.1800 2.0433 0.0075
6.2000 2.0500 0.0124
6.2200 2.0567 -0.0024
6.2400 2.0634 0.0115
6.2600 2.0701 0.0053
6.2800 2.0768 -0.0014
6.3000 2.0835 0.0101
6.3200 2.0901 0.0008
6.3400 2.0967 -0.0055
6.3600 2.1033 0.0076
6.3800 2.1100 0.0066
6.4000 2.1167 -0.0079
6.4200 2.1234 0.0066
6.4400 2.1301 -0.0001
6.4600 2.1368 -0.0099
6.4800 2.1435 0.0074
6.5000 2.1501 -0.0025
6.5200 2.1567 -0.0086
6.5400 2.1634 0.0024
6.5600 2.1700 -0.0100
6.5800 2.1767 -0.0060
6.6000 2.1834 0.0004
6.6200 2.1901 -0.0038
6.6400 2.1967 -0.0124
6.6600 2.2035 -0.0013
6.6800 2.2101 -0.0080
6.7000 2.2167 -0.0125
6.7200 2.2233 -0.0043
6.7400 2.2299 -0.0066
6.7600 2.2366 -0.0120
6.7800 2.2434 -0.0068
6.8000 2.2501 -0.0087
6.8200 2.2567 -0.0136
6.8400 2.2634 -0.0117
6.8600 2.2701 -0.0109
6.8800 2.2767 -0.0175
6.9000 2.2833 -0.0143
6.9200 2.2900 -0.0101
6.9400 2.2967 -0.0189
6.9600 2.3034 -0.0160
6.9800 2.3101 -0.0122
7.0000 2.3168 -0.0149
7.0200 2.3234 -0.0198
7.0400 2.3301 -0.0182
7.0600 2.3367 -0.0211
7.0800 2.3433 -0.0166
7.1000 2.3500 -0.0198
7.1200 2.3567 -0.0202
7.1400 2.3634 -0.0220
7.1600 2.3701 -0.0190
7.1800 2.3768 -0.0227
7.2000 2.3835 -0.0227
7.2200 2.3901 -0.0230
7.2400 2.3967 -0.0245
7.2600 2.4033 -0.0243
7.2800 2.4100 -0.0196
7.3000 2.4167 -0.0313
7.3200 2.4234 -0.0304
7.3400 2.4301 -0.0259
7.3600 2.4367 -0.0298
7.3800 2.4434 -0.0275
7.4000 2.4501 -0.0289
7.4200 2.4567 -0.0314
7.4400 2.4633 -0.0319
7.4600 2.4700 -0.0282
7.4800 2.4767 -0.0311
7.5000 2.4834 -0.0321
7.5200 2.4900 -0.0308
7.5400 2.4967 -0.0333
7.5600 2.5034 -0.0340
7.5800 2.5100 -0.0312
7.6000 2.5167 -0.0360
7.6200 2.5233 -0.0330
7.6400 2.5300 -0.0377
7.6600 2.5367 -0.0406
7.6800 2.5434 -0.0364
7.7000 2.5501 -0.0350
7.7200 2.5568 -0.0444
7.7400 2.5635 -0.0395
7.7600 2.5701 -0.0349
7.7800 2.5767 -0.0446
7.8000 2.5833 -0.0415
7.8200 2.5900 -0.0352
7.8400 2.5967 -0.0409
7.8600 2.6034 -0.0413
7.8800 2.6101 -0.0414
7.9000 2.6168 -0.0423
7.9200 2.6234 -0.0428
7.9400 2.6301 -0.0413
7.9600 2.6367 -0.0437
7.9800 2.6433 -0.0421
8.0000 2.6500 -0.0443
8.0200 2.6567 -0.0431
8.0400 2.6634 -0.0453
8.0600 2.6701 -0.0436
8.0800 2.6767 -0.0458
8.1000 2.6834 -0.0496
8.1200 2.6901 -0.0490
8.1400 2.6967 -0.0504
8.1600 2.7033 -0.0472
8.1800 2.7099 -0.0465
8.2000 2.7166 -0.0514
8.2200 2.7234 -0.0546
8.2400 2.7301 -0.0487
8.2600 2.7368 -0.0538
8.2800 2.7434 -0.0516
8.3000 2.7501 -0.0574
8.3200 2.7567 -0.0545
8.3400 2.7633 -0.0532
8.3600 2.7700 -0.0532
8.3800 2.7767 -0.0563
8.4000 2.7834 -0.0539
8.4200 2.7901 -0.0555
8.4400 2.7968 -0.0610
8.4600 2.8034 -0.0598
8.4800 2.8101 -0.0536
8.5000 2.8167 -0.0652
8.5200 2.8234 -0.0607
8.5400 2.8300 -0.0620
8.5600 2.8367 -0.0649
8.5800 2.8434 -0.0583
8.6000 2.8501 -0.0654
8.6200 2.8568 -0.0607
8.6400 2.8635 -0.0590
8.6600 2.8701 -0.0660
8.6800 2.8768 -0.0698
8.7000 2.8833 -0.0551
8.7200 2.8900 -0.0665
8.7400 2.8967 -0.0712
8.7600 2.9034 -0.0616
8.7800 2.9101 -0.0684
8.8000 2.9167 -0.0724
8.8200 2.9234 -0.0657
8.8400 2.9301 -0.0701
8.8600 2.9367 -0.0663
8.8800 2.9433 -0.0664
8.9000 2.9499 -0.0706
8.9200 2.9566 -0.0707
8.9400 2.9633 -0.0664
8.9600 2.9700 -0.0796
8.9800 2.9767 -0.0648
9.0000 2.9834 -0.0701
9.0200 2.9901 -0.0846
9.0400 2.9967 -0.0626
9.0600 3.0033 -0.0749
9.0800 3.0100 -0.0807
9.1000 3.0167 -0.0673
9.1200 3.0234 -0.0777
9.1400 3.0301 -0.0824
9.1600 3.0368 -0.0648
9.1800 3.0435 -0.0816
9.2000 3.0501 -0.0775
9.2200 3.0568 -0.0696
9.2400 3.0634 -0.0827
9.2600 3.0700 -0.0809
9.2800 3.0767 -0.0677
9.3000 3.0834 -0.0893
9.3200 3.0901 -0.0755
9.3400 3.0968 -0.0703
9.3600 3.1035 -0.0878
9.3800 3.1101 -0.0835
9.4000 3.1167 -0.0756
9.4200 3.1233 -0.0853
9.4400 3.1300 -0.0826
9.4600 3.1367 -0.0803
9.4800 3.1434 -0.0850
9.5000 3.1501 -0.0846
9.5200 3.1567 -0.0819
9.5400 3.1634 -0.0845
9.5600 3.1701 -0.0803
9.5800 3.1767 -0.0867
9.6000 3.1834 -0.0868
9.6200 3.1900 -0.0808
9.6400 3.1967 -0.0889
9.6600 3.2034 -0.0843
9.6800 3.2100 -0.0889
9.7000 3.2167 -0.0863
9.7200 3.2234 -0.0870
9.7400 3.2300 -0.0890
9.7600 3.2367 -0.0905
9.7800 3.2433 -0.0882
9.8000 3.2500 -0.0922
9.8200 3.2567 -0.0872
9.8400 3.2634 -0.0946
9.8600 3.2701 -0.0956
9.8800 3.2768 -0.0917
9.9000 3.2835 -0.0940
9.9200 3.2901 -0.0989
9.9400 3.2968 -0.0893
9.9600 3.3033 -0.0979
9.9800 3.3100 -0.0982
10.0000 3.3167 -0.0871
10.0200 3.3234 -0.1020
10.0400 3.3301 -0.0995
10.0600 3.3368 -0.0904
10.0800 3.3435 -0.1050
10.1000 3.3501 -0.0981
10.1200 3.3567 -0.0952
10.1400 3.3633 -0.1049
10.1600 3.3700 -0.0999
10.1800 3.3766 -0.0940
10.2000 3.3833 -0.1055
10.2200 3.3900 -0.1024
10.2400 3.3967 -0.0961
10.2600 3.4034 -0.1063
10.2800 3.4101 -0.1052
10.3000 3.4167 -0.1038
10.3200 3.4233 -0.1036
10.3400 3.4299 -0.1088
10.3600 3.4366 -0.1024
10.3800 3.4433 -0.1099
10.4000 3.4501 -0.1093
10.4200 3.4567 -0.1038
10.4400 3.4634 -0.1073
10.4600 3.4701 -0.1081
10.4800 3.4767 -0.1088
10.5000 3.4834 -0.1133
10.5200 3.4900 -0.1110
10.5400 3.4967 -0.1095
10.5600 3.5034 -0.1111
10.5800 3.5101 -0.1197
10.6000 3.5168 -0.1083
10.6200 3.5234 -0.1106
10.6400 3.5301 -0.1190
10.6600 3.5368 -0.1082
10.6800 3.5434 -0.1231
10.7000 3.5500 -0.1151
10.7200 3.5566 -0.1104
10.7400 3.5633 -0.1246
10.7600 3.5701 -0.1183
10.7800 3.5768 -0.1049
10.8000 3.5834 -0.1301
10.8200 3.5901 -0.1247
10.8400 3.5968 -0.1105
10.8600 3.6034 -0.1254
10.8800 3.6100 -0.1236
10.9000 3.6166 -0.1114
10.9200 3.6234 -0.1312
10.9400 3.6301 -0.1186
10.9600 3.6368 -0.1170
10.9800 3.6434 -0.1343
11.0000 3.6501 -0.1213
11.0200 3.6567 -0.1217
11.0400 3.6633 -0.1376
11.0600 3.6699 -0.1206
11.0800 3.6766 -0.1225
11.1000 3.6833 -0.1374
11.1200 3.6900 -0.1262
11.1400 3.6967 -0.1253
11.1600 3.7034 -0.1363
11.1800 3.7100 -0.1279
11.2000 3.7167 -0.1282
11.2200 3.7233 -0.1370
11.2400 3.7300 -0.1301
11.2600 3.7366 -0.1328
11.2800 3.7434 -0.1340
11.3000 3.7501 -0.1314
11.3200 3.7568 -0.1325
11.3400 3.7635 -0.1418
11.3600 3.7702 -0.1364
11.3800 3.7768 -0.1380
11.4000 3.7834 -0.1417
11.4200 3.7900 -0.1365
11.4400 3.7967 -0.1369
11.4600 3.8034 -0.1437
11.4800 3.8101 -0.1413
11.5000 3.8168 -0.1384
11.5200 3.8235 -0.1425
11.5400 3.8301 -0.1453
11.5600 3.8368 -0.1404
11.5800 3.8434 -0.1472
11.6000 3.8500 -0.1404
11.6200 3.8566 -0.1390
11.6400 3.8633 -0.1460
11.6600 3.8700 -0.1411
11.6800 3.8767 -0.1429
11.7000 3.8834 -0.1486
11.7200 3.8901 -0.1459
11.7400 3.8967 -0.1391
11.7600 3.9033 -0.1517
11.7800 3.9099 -0.1412
11.8000 3.9166 -0.1429
11.8200 3.9233 -0.1482
11.8400 3.9300 -0.1404
11.8600 3.9367 -0.1474
11.8800 3.9434 -0.1511
11.9000 3.9501 -0.1381
11.9200 3.9567 -0.1490
11.9400 3.9633 -0.1467
11.9600 3.9700 -0.1374
11.9800 3.9766 -0.1469
12.0000 3.9834 -0.1537
12.0200 3.9901 -0.1384
12.0400 3.9968 -0.1476
12.0600 4.0035 -0.1478
12.0800 4.0101 -0.1395
12.1000 4.0168 -0.1499
12.1200 4.0234 -0.1465
12.1400 4.0300 -0.1399
12.1600 4.0367 -0.1498
12.1800 4.0434 -0.1457
12.2000 4.0501 -0.1441
12.2200 4.0567 -0.1495
12.2400 4.0634 -0.1447
12.2600 4.0701 -0.1493
12.2800 4.0768 -0.1463
12.3000 4.0834 -0.1488
12.3200 4.0900 -0.1440
12.3400 4.0966 -0.1482
12.3600 4.1033 -0.1460
12.3800 4.1100 -0.1492
12.4000 4.1167 -0.1499
12.4200 4.1234 -0.1467
12.4400 4.1301 -0.1471
12.4600 4.1367 -0.1543
12.4800 4.1434 -0.1474
12.5000 4.1500 -0.1471
12.5200 4.1566 -0.1546
12.5400 4.1633 -0.1488
12.5600 4.1700 -0.1505
12.5800 4.1767 -0.1585
12.6000 4.1834 -0.1520
12.6200 4.1901 -0.1533
12.6400 4.1967 -0.1561
12.6600 4.2034 -0.1584
12.6800 4.2100 -0.1547
12.7000 4.2167 -0.1531
12.7200 4.2234 -0.1653
12.7400 4.2300 -0.1581
12.7600 4.2367 -0.1594
12.7800 4.2434 -0.1646
12.8000 4.2501 -0.1583
12.8200 4.2568 -0.1566
12.8400 4.2634 -0.1676
12.8600 4.2700 -0.1609
12.8800 4.2767 -0.1599
12.9000 4.2834 -0.1675
12.9200 4.2901 -0.1637
12.9400 4.2968 -0.1637
12.9600 4.3035 -0.1752
12.9800 4.3101 -0.1586
13.0000 4.3168 -0.1670
13.0200 4.3234 -0.1740
13.0400 4.3300 -0.1658
13.0600 4.3367 -0.1672
13.0800 4.3434 -0.1747
13.1000 4.3501 -0.1644
13.1200 4.3567 -0.1718
13.1400 4.3634 -0.1724
13.1600 4.3701 -0.1674
13.1800 4.3768 -0.1782
13.2000 4.3834 -0.1773
13.2200 4.3900 -0.1682
13.2400 4.3966 -0.1794
13.2600 4.4033 -0.1794
13.2800 4.4100 -0.1734
13.3000 4.4167 -0.1797
13.3200 4.4234 -0.1745
13.3400 4.4301 -0.1760
13.3600 4.4368 -0.1832
13.3800 4.4434 -0.1789
13.4000 4.4500 -0.1763
13.4200 4.4566 -0.1819
13.4400 4.4633 -0.1767
13.4600 4.4701 -0.1816
13.4800 4.4768 -0.1821
13.5000 4.4835 -0.1820
13.5200 4.4901 -0.1846
13.5400 4.4968 -0.1795
13.5600 4.5034 -0.1809
13.5800 4.5100 -0.1862
13.6000 4.5167 -0.1774
13.6200 4.5234 -0.1879
13.6400 4.5301 -0.1849
13.6600 4.5368 -0.1806
13.6800 4.5434 -0.1911
13.7000 4.5501 -0.1825
13.7200 4.5568 -0.1844
13.7400 4.5634 -0.1915
13.7600 4.5700 -0.1809
13.7800 4.5766 -0.1794
13.8000 4.5833 -0.1944
13.8200 4.5900 -0.1854
13.8400 4.5967 -0.1881
13.8600 4.6034 -0.1919
13.8800 4.6101 -0.1833
13.9000 4.6168 -0.1900
13.9200 4.6234 -0.1963
13.9400 4.6300 -0.1794
13.9600 4.6366 -0.1962
13.9800 4.6433 -0.1974
14.0000 4.6500 -0.1823
14.0200 4.6567 -0.1932
14.0400 4.6634 -0.2033
14.0600 4.6701 -0.1823
14.0800 4.6767 -0.1989
14.1000 4.6834 -0.1968
14.1200 4.6900 -0.1830
14.1400 4.6966 -0.2003
14.1600 4.7033 -0.2004
14.1800 4.7101 -0.1872
14.2000 4.7168 -0.2013
14.2200 4.7234 -0.2031
14.2400 4.7301 -0.1874
14.2600 4.7368 -0.2041
14.2800 4.7434 -0.2018
14.3000 4.7500 -0.1878
14.3200 4.7567 -0.2043
14.3400 4.7633 -0.2009
14.3600 4.7700 -0.1875
14.3800 4.7767 -0.2091
14.4000 4.7834 -0.2000
14.4200 4.7901 -0.1938
14.4400 4.7968 -0.2041
14.4600 4.8034 -0.2037
14.4800 4.8100 -0.1927
14.5000 4.8166 -0.2069
14.5200 4.8233 -0.2017
14.5400 4.8300 -0.1960
14.5600 4.8367 -0.2065
14.5800 4.8434 -0.2030
14.6000 4.8500 -0.1952
14.6200 4.8567 -0.2105
14.6400 4.8634 -0.2038
14.6600 4.8700 -0.1973
14.6800 4.8766 -0.2093
14.7000 4.8833 -0.2053
14.7200 4.8900 -0.1998
14.7400 4.8967 -0.2096
14.7600 4.9034 -0.2048
14.7800 4.9100 -0.2006
14.8000 4.9167 -0.2131
14.8200 4.9234 -0.2085
14.8400 4.9300 -0.2033
14.8600 4.9367 -0.2106
14.8800 4.9434 -0.2082
14.9000 4.9501 -0.2064
14.9200 4.9567 -0.2130
14.9400 4.9634 -0.2008
14.9600 4.9701 -0.2131
14.9800 4.9768 -0.2117
15.0000 4.9834 -0.2023
15.0200 4.9900 -0.2094
15.0400 4.9966 -0.2158
15.0600 5.0033 -0.2016
15.0800 5.0100 -0.2108
15.1000 5.0168 -0.2185
15.1200 5.0234 -0.2077
15.1400 5.0301 -0.2098
15.1600 5.0368 -0.2238
15.1800 5.0434 -0.2069
15.2000 5.0500 -0.2105
15.2200 5.0566 -0.2232
15.2400 5.0633 -0.2096
15.2600 5.0700 -0.2119
15.2800 5.0768 -0.2211
15.3000 5.0834 -0.2099
15.3200 5.0901 -0.2145
15.3400 5.0968 -0.2238
15.3600 5.1034 -0.2088
15.3800 5.1100 -0.2185
15.4000 5.1166 -0.2226
15.4200 5.1233 -0.2088
15.4400 5.1300 -0.2197
15.4600 5.1367 -0.2246
15.4800 5.1434 -0.2103
15.5000 5.1500 -0.2219
15.5200 5.1567 -0.2158
15.5400 5.1634 -0.2192
15.5600 5.1700 -0.2268
15.5800 5.1766 -0.2148
15.6000 5.1833 -0.2201
15.6200 5.1900 -0.2322
15.6400 5.1967 -0.2097
15.6600 5.2034 -0.2226
15.6800 5.2101 -0.2299
15.7000 5.2168 -0.2130
15.7200 5.2235 -0.2297
15.7400 5.2301 -0.2242
15.7600 5.2367 -0.2164
15.7800 5.2434 -0.2344
15.8000 5.2501 -0.2213
15.8200 5.2568 -0.2206
15.8400 5.2634 -0.2388
15.8600 5.2701 -0.2219
15.8800 5.2768 -0.2209
15.9000 5.2834 -0.2404
15.9200 5.2900 -0.2206
15.9400 5.2966 -0.2239
15.9600 5.3033 -0.2427
15.9800 5.3100 -0.2137
16.0000 5.3167 -0.2338
16.0200 5.3233 -0.2412
16.0400 5.3300 -0.2190
16.0600 5.3367 -0.2334
16.0800 5.3434 -0.2406
16.1000 5.3500 -0.2208
16.1200 5.3566 -0.2355
16.1400 5.3633 -0.2369
16.1600 5.3700 -0.2260
16.1800 5.3768 -0.2397
16.2000 5.3834 -0.2345
16.2200 5.3901 -0.2235
16.2400 5.3967 -0.2430
16.2600 5.4034 -0.2332
16.2800 5.4100 -0.2276
16.3000 5.4167 -0.2443
16.3200 5.4234 -0.2338
16.3400 5.4301 -0.2337
16.3600 5.4367 -0.2421
16.3800 5.4434 -0.2352
16.4000 5.4501 -0.2356
16.4200 5.4568 -0.2450
16.4400 5.4635 -0.2363
16.4600 5.4701 -0.2368
16.4800 5.4766 -0.2401
16.5000 5.4833 -0.2352
16.5200 5.4900 -0.2399
16.5400 5.4967 -0.2410
16.5600 5.5034 -0.2379
16.5800 5.5101 -0.2409
16.6000 5.5168 -0.2397
16.6200 5.5234 -0.2436
16.6400 5.5300 -0.2388
16.6600 5.5366 -0.2430
16.6800 5.5433 -0.2419
16.7000 5.5500 -0.2398
16.7200 5.5567 -0.2440
16.7400 5.5634 -0.2438
16.7600 5.5700 -0.2405
16.7800 5.5767 -0.2425
16.8000 5.5834 -0.2454
16.8200 5.5900 -0.2438
16.8400 5.5966 -0.2411
16.8600 5.6033 -0.2447
16.8800 5.6100 -0.2452
16.9000 5.6167 -0.2444
16.9200 5.6234 -0.2519
16.9400 5.6301 -0.2409
16.9600 5.6368 -0.2474
16.9800 5.6435 -0.2531
17.0000 5.6501 -0.2413
17.0200 5.6567 -0.2490
17.0400 5.6633 -0.2551
17.0600 5.6700 -0.2376
17.0800 5.6768 -0.2538
17.1000 5.6835 -0.2524
17.1200 5.6901 -0.2446
17.1400 5.6968 -0.2483
17.1600 5.7034 -0.2546
17.1800 5.7100 -0.2482
17.2000 5.7167 -0.2538
17.2200 5.7233 -0.2557
