Raw Data
Time Displacement Force
(s) (mm) (N)
0.0000 0.0000 0.6187
0.0200 0.0000 0.6231
0.0400 0.0008 0.6562
0.0600 0.0039 0.7264
0.0800 0.0094 0.7301
0.1000 0.0152 0.7589
0.1200 0.0211 0.8495
0.1400 0.0277 0.8673
0.1600 0.0349 0.8493
0.1800 0.0424 0.8888
0.2000 0.0496 0.8586
0.2200 0.0565 0.8431
0.2400 0.0631 0.8815
0.2600 0.0698 0.8686
0.2800 0.0764 0.8593
0.3000 0.0832 0.8808
0.3200 0.0899 0.8532
0.3400 0.0966 0.8664
0.3600 0.1033 0.8834
0.3800 0.1100 0.8565
0.4000 0.1166 0.8637
0.4200 0.1233 0.8871
0.4400 0.1299 0.8520
0.4600 0.1366 0.8670
0.4800 0.1433 0.8886
0.5000 0.1500 0.8590
0.5200 0.1567 0.8671
0.5400 0.1634 0.8810
0.5600 0.1700 0.8672
0.5800 0.1766 0.8724
0.6000 0.1832 0.8795
0.6200 0.1899 0.8618
0.6400 0.1966 0.8791
0.6600 0.2033 0.8819
0.6800 0.2100 0.8614
0.7000 0.2166 0.8775
0.7200 0.2233 0.8787
0.7400 0.2300 0.8679
0.7600 0.2366 0.8812
0.7800 0.2432 0.8765
0.8000 0.2499 0.8745
0.8200 0.2566 0.8749
0.8400 0.2633 0.8777
0.8600 0.2699 0.8753
0.8800 0.2766 0.8803
0.9000 0.2833 0.8783
0.9200 0.2900 0.8688
0.9400 0.2966 0.8771
0.9600 0.3032 0.8816
0.9800 0.3098 0.8787
1.0000 0.3165 0.8703
1.0200 0.3232 0.8741
1.0400 0.3299 0.8836
1.0600 0.3366 0.8707
1.0800 0.3433 0.8721
1.1000 0.3499 0.8790
1.1200 0.3566 0.8720
1.1400 0.3632 0.8741
1.1600 0.3698 0.8758
1.1800 0.3765 0.8744
1.2000 0.3833 0.8695
1.2200 0.3900 0.8705
1.2400 0.3967 0.8638
1.2600 0.4034 0.8750
1.2800 0.4100 0.8688
1.3000 0.4167 0.8605
1.3200 0.4233 0.8737
1.3400 0.4299 0.8618
1.3600 0.4366 0.8590
1.3800 0.4433 0.8693
1.4000 0.4500 0.8661
1.4200 0.4567 0.8552
1.4400 0.4633 0.8662
1.4600 0.4700 0.8684
1.4800 0.4766 0.8564
1.5000 0.4832 0.8606
1.5200 0.4898 0.8627
1.5400 0.4965 0.8583
1.5600 0.5033 0.8592
1.5800 0.5100 0.8515
1.6000 0.5166 0.8620
1.6200 0.5233 0.8591
1.6400 0.5300 0.8502
1.6600 0.5366 0.8534
1.6800 0.5432 0.8569
1.7000 0.5499 0.8526
1.7200 0.5566 0.8520
1.7400 0.5633 0.8516
1.7600 0.5700 0.8507
1.7800 0.5766 0.8542
1.8000 0.5833 0.8451
1.8200 0.5900 0.8511
1.8400 0.5966 0.8450
1.8600 0.6032 0.8400
1.8800 0.6099 0.8497
1.9000 0.6166 0.8503
1.9200 0.6233 0.8360
1.9400 0.6299 0.8464
1.9600 0.6366 0.8466
1.9800 0.6433 0.8417
2.0000 0.6500 0.8411
2.0200 0.6567 0.8371
2.0400 0.6632 0.8363
2.0600 0.6699 0.8462
2.0800 0.6765 0.8372
2.1000 0.6833 0.8334
2.1200 0.6900 0.8397
2.1400 0.6967 0.8300
2.1600 0.7033 0.8370
2.1800 0.7100 0.8435
2.2000 0.7166 0.8241
2.2200 0.7232 0.8283
2.2400 0.7298 0.8371
2.2600 0.7366 0.8244
2.2800 0.7433 0.8330
2.3000 0.7500 0.8337
2.3200 0.7566 0.8214
2.3400 0.7633 0.8241
2.3600 0.7700 0.8328
2.3800 0.7766 0.8301
2.4000 0.7832 0.8299
2.4200 0.7899 0.8133
2.4400 0.7965 0.8185
2.4600 0.8032 0.8341
2.4800 0.8099 0.8236
2.5000 0.8166 0.8064
2.5200 0.8233 0.8092
2.5400 0.8300 0.8246
2.5600 0.8367 0.8254
2.5800 0.8432 0.8177
2.6000 0.8499 0.8154
2.6200 0.8566 0.8014
2.6400 0.8633 0.8118
2.6600 0.8700 0.8414
2.6800 0.8767 0.8090
2.7000 0.8834 0.7857
2.7200 0.8900 0.8125
2.7400 0.8966 0.8176
2.7600 0.9032 0.8049
2.7800 0.9099 0.8223
2.8000 0.9166 0.7943
2.8200 0.9233 0.7928
2.8400 0.9300 0.8175
2.8600 0.9367 0.8081
2.8800 0.9433 0.7949
2.9000 0.9500 0.8034
2.9200 0.9566 0.8015
2.9400 0.9633 0.8053
2.9600 0.9699 0.8057
2.9800 0.9765 0.7939
3.0000 0.9832 0.7967
3.0200 0.9899 0.8054
3.0400 0.9966 0.8017
3.0600 1.0033 0.7963
3.0800 1.0100 0.7899
3.1000 1.0166 0.7915
3.1200 1.0232 0.8018
3.1400 1.0298 0.7963
3.1600 1.0365 0.7996
3.1800 1.0432 0.7813
3.2000 1.0499 0.7925
3.2200 1.0566 0.8058
3.2400 1.0633 0.7883
3.2600 1.0700 0.7889
3.2800 1.0766 0.7893
3.3000 1.0833 0.7811
3.3200 1.0899 0.7998
3.3400 1.0966 0.7951
3.3600 1.1033 0.7751
3.3800 1.1100 0.7860
3.4000 1.1166 0.7846
3.4200 1.1234 0.7809
3.4400 1.1301 0.8084
3.4600 1.1367 0.7810
3.4800 1.1433 0.7511
3.5000 1.1499 0.7984
3.5200 1.1566 0.8016
3.5400 1.1633 0.7882
3.5600 1.1700 0.7719
3.5800 1.1767 0.7460
3.6000 1.1833 0.7922
3.6200 1.1900 0.8268
3.6400 1.1966 0.7539
3.6600 1.2032 0.7506
3.6800 1.2099 0.8017
3.7000 1.2165 0.7688
3.7200 1.2233 0.7921
3.7400 1.2300 0.7951
3.7600 1.2366 0.7306
3.7800 1.2433 0.7851
3.8000 1.2500 0.8015
3.8200 1.2566 0.7438
3.8400 1.2633 0.7852
3.8600 1.2699 0.7864
3.8800 1.2766 0.7426
3.9000 1.2833 0.7906
3.9200 1.2899 0.7844
3.9400 1.2966 0.7466
3.9600 1.3032 0.7814
3.9800 1.3100 0.7708
4.0000 1.3166 0.7677
4.0200 1.3233 0.7771
4.0400 1.3299 0.7535
4.0600 1.3365 0.7652
4.0800 1.3432 0.7830
4.1000 1.3499 0.7599
4.1200 1.3566 0.7669
4.1400 1.3633 0.7605
4.1600 1.3700 0.7528
4.1800 1.3767 0.7790
4.2000 1.3833 0.7606
4.2200 1.3899 0.7495
4.2400 1.3965 0.7742
4.2600 1.4033 0.7481
4.2800 1.4100 0.7564
4.3000 1.4167 0.7824
4.3200 1.4234 0.7421
4.3400 1.4300 0.7542
4.3600 1.4367 0.7666
4.3800 1.4433 0.7402
4.4000 1.4499 0.7677
4.4200 1.4565 0.7697
4.4400 1.4632 0.7302
4.4600 1.4699 0.7595
4.4800 1.4766 0.7644
4.5000 1.4833 0.7413
4.5200 1.4900 0.7573
4.5400 1.4967 0.7551
4.5600 1.5033 0.7373
4.5800 1.5099 0.7579
4.6000 1.5165 0.7567
4.6200 1.5232 0.7313
4.6400 1.5299 0.7607
4.6600 1.5366 0.7535
4.6800 1.5433 0.7281
4.7000 1.5500 0.7486
4.7200 1.5567 0.7492
4.7400 1.5633 0.7367
4.7600 1.5699 0.7463
4.7800 1.5765 0.7456
4.8000 1.5833 0.7369
4.8200 1.5900 0.7374
4.8400 1.5967 0.7477
4.8600 1.6034 0.7384
4.8800 1.6100 0.7346
4.9000 1.6167 0.7356
4.9200 1.6233 0.7407
4.9400 1.6299 0.7331
4.9600 1.6366 0.7379
4.9800 1.6433 0.7404
5.0000 1.6500 0.7252
5.0200 1.6567 0.7355
5.0400 1.6633 0.7437
5.0600 1.6700 0.7218
5.0800 1.6767 0.7321
5.1000 1.6833 0.7370
5.1200 1.6899 0.7243
5.1400 1.6965 0.7340
5.1600 1.7032 0.7358
5.1800 1.7099 0.7179
5.2000 1.7166 0.7290
5.2200 1.7233 0.7387
5.2400 1.7300 0.7156
5.2600 1.7367 0.7275
5.2800 1.7433 0.7298
5.3000 1.7499 0.7199
5.3200 1.7565 0.7259
5.3400 1.7632 0.7248
5.3600 1.7699 0.7203
5.3800 1.7766 0.7232
5.4000 1.7833 0.7215
5.4200 1.7899 0.7273
5.4400 1.7966 0.7144
5.4600 1.8033 0.7119
5.4800 1.8099 0.7228
5.5000 1.8165 0.7198
5.5200 1.8232 0.7151
5.5400 1.8299 0.7198
5.5600 1.8366 0.7164
5.5800 1.8433 0.7095
5.6000 1.8500 0.7200
5.6200 1.8567 0.7179
5.6400 1.8633 0.7101
5.6600 1.8699 0.7153
5.6800 1.8765 0.7126
5.7000 1.8832 0.7074
5.7200 1.8900 0.7208
5.7400 1.8967 0.7102
5.7600 1.9033 0.7101
5.7800 1.9100 0.7092
5.8000 1.9167 0.7064
5.8200 1.9233 0.7102
5.8400 1.9299 0.7119
5.8600 1.9365 0.7062
5.8800 1.9432 0.7081
5.9000 1.9499 0.7063
5.9200 1.9566 0.7023
5.9400 1.9633 0.7104
5.9600 1.9700 0.7073
5.9800 1.9766 0.6930
6.0000 1.9833 0.7052
6.0200 1.9899 0.7026
6.0400 1.9965 0.6970
6.0600 2.0032 0.7062
6.0800 2.0099 0.6927
6.1000 2.0166 0.6946
6.1200 2.0233 0.7008
6.1400 2.0300 0.6984
6.1600 2.0367 0.6914
6.1800 2.0433 0.6987
6.2000 2.0499 0.6936
6.2200 2.0565 0.6918
6.2400 2.0632 0.6934
6.2600 2.0699 0.6986
6.2800 2.0767 0.6883
6.3000 2.0833 0.6865
6.3200 2.0900 0.6914
6.3400 2.0967 0.6778
6.3600 2.1033 0.6912
6.3800 2.1099 0.6973
6.4000 2.1165 0.6739
6.4200 2.1232 0.6887
6.4400 2.1299 0.6916
6.4600 2.1367 0.6665
6.4800 2.1433 0.6991
6.5000 2.1500 0.6875
6.5200 2.1567 0.6605
6.5400 2.1633 0.6868
6.5600 2.1699 0.6882
6.5800 2.1766 0.6683
6.6000 2.1832 0.6801
6.6200 2.1899 0.6736
6.6400 2.1966 0.6646
6.6600 2.2033 0.6942
6.6800 2.2100 0.6724
6.7000 2.2167 0.6542
6.7200 2.2233 0.6885
6.7400 2.2299 0.6660
6.7600 2.2365 0.6581
6.7800 2.2432 0.6880
6.8000 2.2499 0.6717
6.8200 2.2566 0.6513
6.8400 2.2633 0.6710
6.8600 2.2700 0.6738
6.8800 2.2767 0.6638
6.9000 2.2833 0.6748
6.9200 2.2899 0.6543
6.9400 2.2965 0.6601
6.9600 2.3032 0.6750
6.9800 2.3099 0.6616
7.0000 2.3166 0.6574
7.0200 2.3233 0.6686
7.0400 2.3300 0.6600
7.0600 2.3367 0.6556
7.0800 2.3433 0.6661
7.1000 2.3500 0.6586
7.1200 2.3566 0.6555
7.1400 2.3632 0.6622
7.1600 2.3699 0.6554
7.1800 2.3766 0.6525
7.2000 2.3833 0.6624
7.2200 2.3900 0.6552
7.2400 2.3967 0.6592
7.2600 2.4033 0.6573
7.2800 2.4099 0.6433
7.3000 2.4165 0.6602
7.3200 2.4232 0.6662
7.3400 2.4299 0.6427
7.3600 2.4366 0.6515
7.3800 2.4433 0.6569
7.4000 2.4500 0.6491
7.4200 2.4567 0.6502
7.4400 2.4633 0.6566
7.4600 2.4699 0.6465
7.4800 2.4765 0.6497
7.5000 2.4832 0.6472
7.5200 2.4899 0.6533
7.5400 2.4966 0.6498
7.5600 2.5033 0.6416
7.5800 2.5099 0.6486
7.6000 2.5166 0.6457
7.6200 2.5233 0.6399
7.6400 2.5299 0.6546
7.6600 2.5366 0.6441
7.6800 2.5432 0.6350
7.7000 2.5499 0.6453
7.7200 2.5566 0.6433
7.7400 2.5633 0.6470
7.7600 2.5700 0.6423
7.7800 2.5767 0.6312
7.8000 2.5833 0.6389
7.8200 2.5899 0.6526
7.8400 2.5965 0.6309
7.8600 2.6032 0.6380
7.8800 2.6100 0.6446
7.9000 2.6167 0.6277
7.9200 2.6233 0.6374
7.9400 2.6300 0.6389
7.9600 2.6367 0.6315
7.9800 2.6433 0.6353
8.0000 2.6499 0.6358
8.0200 2.6565 0.6288
8.0400 2.6632 0.6422
8.0600 2.6699 0.6358
8.0800 2.6766 0.6195
8.1000 2.6833 0.6366
8.1200 2.6900 0.6320
8.1400 2.6966 0.6217
8.1600 2.7033 0.6327
8.1800 2.7099 0.6278
8.2000 2.7165 0.6234
8.2200 2.7232 0.6308
8.2400 2.7299 0.6298
8.2600 2.7366 0.6225
8.2800 2.7433 0.6278
8.3000 2.7500 0.6223
8.3200 2.7567 0.6250
8.3400 2.7633 0.6244
8.3600 2.7699 0.6215
8.3800 2.7766 0.6194
8.4000 2.7832 0.6272
8.4200 2.7899 0.6151
8.4400 2.7966 0.6198
8.4600 2.8033 0.6212
8.4800 2.8100 0.6167
8.5000 2.8167 0.6187
8.5200 2.8233 0.6176
8.5400 2.8299 0.6131
8.5600 2.8366 0.6169
8.5800 2.8432 0.6227
8.6000 2.8499 0.6140
8.6200 2.8566 0.6142
8.6400 2.8633 0.6057
8.6600 2.8700 0.6218
8.6800 2.8767 0.6201
8.7000 2.8834 0.5994
8.7200 2.8900 0.6080
8.7400 2.8966 0.6219
8.7600 2.9032 0.6132
8.7800 2.9099 0.6078
8.8000 2.9166 0.6085
8.8200 2.9233 0.6116
8.8400 2.9300 0.6030
8.8600 2.9366 0.6100
8.8800 2.9433 0.6095
8.9000 2.9499 0.6090
8.9200 2.9565 0.6005
8.9400 2.9631 0.6057
8.9600 2.9698 0.6166
8.9800 2.9766 0.5982
9.0000 2.9832 0.6058
9.0200 2.9899 0.6044
9.0400 2.9966 0.5994
9.0600 3.0033 0.6077
9.0800 3.0099 0.6089
9.1000 3.0166 0.5943
9.1200 3.0232 0.6065
9.1400 3.0299 0.5958
9.1600 3.0366 0.5985
9.1800 3.0433 0.6095
9.2000 3.0500 0.5941
9.2200 3.0567 0.5960
9.2400 3.0634 0.6065
9.2600 3.0700 0.5882
9.2800 3.0766 0.5978
9.3000 3.0832 0.6039
9.3200 3.0899 0.5884
9.3400 3.0966 0.5978
9.3600 3.1033 0.5975
9.3800 3.1100 0.5895
9.4000 3.1167 0.5978
9.4200 3.1234 0.5981
9.4400 3.1299 0.5823
9.4600 3.1365 0.6037
9.4800 3.1432 0.5933
9.5000 3.1499 0.5847
9.5200 3.1566 0.5957
9.5400 3.1633 0.5874
9.5600 3.1700 0.5859
9.5800 3.1766 0.5969
9.6000 3.1833 0.5850
9.6200 3.1900 0.5827
9.6400 3.1966 0.5934
9.6600 3.2032 0.5849
9.6800 3.2099 0.5838
9.7000 3.2166 0.5950
9.7200 3.2233 0.5791
9.7400 3.2299 0.5851
9.7600 3.2366 0.5887
9.7800 3.2433 0.5792
9.8000 3.2499 0.5850
9.8200 3.2565 0.5870
9.8400 3.2632 0.5824
9.8600 3.2699 0.5835
9.8800 3.2766 0.5875
9.9000 3.2833 0.5740
9.9200 3.2900 0.5792
9.9400 3.2967 0.5841
9.9600 3.3033 0.5732
9.9800 3.3100 0.5761
10.0000 3.3166 0.5841
10.0200 3.3232 0.5728
10.0400 3.3300 0.5768
10.0600 3.3367 0.5820
10.0800 3.3434 0.5695
10.1000 3.3500 0.5774
10.1200 3.3567 0.5792
10.1400 3.3633 0.5630
10.1600 3.3699 0.5752
10.1800 3.3766 0.5771
10.2000 3.3832 0.5677
10.2200 3.3899 0.5732
10.2400 3.3966 0.5720
10.2600 3.4033 0.5640
10.2800 3.4099 0.5705
10.3000 3.4166 0.5718
10.3200 3.4233 0.5584
10.3400 3.4299 0.5720
10.3600 3.4365 0.5666
10.3800 3.4432 0.5585
10.4000 3.4499 0.5662
10.4200 3.4566 0.5663
10.4400 3.4633 0.5574
10.4600 3.4700 0.5627
10.4800 3.4766 0.5656
10.5000 3.4833 0.5553
10.5200 3.4899 0.5591
10.5400 3.4966 0.5691
10.5600 3.5032 0.5559
10.5800 3.5099 0.5617
10.6000 3.5166 0.5618
10.6200 3.5233 0.5505
10.6400 3.5300 0.5547
10.6600 3.5367 0.5644
10.6800 3.5434 0.5526
10.7000 3.5500 0.5464
10.7200 3.5566 0.5565
10.7400 3.5632 0.5526
10.7600 3.5699 0.5600
10.7800 3.5766 0.5500
10.8000 3.5833 0.5426
10.8200 3.5900 0.5570
10.8400 3.5967 0.5508
10.8600 3.6033 0.5381
10.8800 3.6100 0.5554
10.9000 3.6166 0.5531
10.9200 3.6232 0.5391
10.9400 3.6299 0.5480
10.9600 3.6366 0.5502
10.9800 3.6433 0.5398
11.0000 3.6500 0.5481
11.0200 3.6567 0.5493
11.0400 3.6633 0.5441
11.0600 3.6700 0.5448
11.0800 3.6766 0.5434
11.1000 3.6832 0.5423
11.1200 3.6899 0.5391
11.1400 3.6966 0.5482
11.1600 3.7033 0.5451
11.1800 3.7099 0.5378
11.2000 3.7166 0.5422
11.2200 3.7233 0.5462
11.2400 3.7299 0.5349
11.2600 3.7366 0.5400
11.2800 3.7432 0.5432
11.3000 3.7499 0.5316
11.3200 3.7566 0.5376
11.3400 3.7633 0.5413
11.3600 3.7700 0.5328
11.3800 3.7767 0.5403
11.4000 3.7834 0.5309
11.4200 3.7900 0.5307
11.4400 3.7966 0.5395
11.4600 3.8032 0.5338
11.4800 3.8099 0.5348
11.5000 3.8166 0.5340
11.5200 3.8233 0.5282
11.5400 3.8300 0.5333
11.5600 3.8367 0.5347
11.5800 3.8433 0.5285
11.6000 3.8500 0.5340
11.6200 3.8566 0.5288
11.6400 3.8632 0.5274
11.6600 3.8699 0.5308
11.6800 3.8766 0.5286
11.7000 3.8832 0.5265
11.7200 3.8899 0.5288
11.7400 3.8966 0.5244
11.7600 3.9033 0.5281
11.7800 3.9100 0.5280
11.8000 3.9166 0.5249
11.8200 3.9232 0.5264
11.8400 3.9298 0.5263
11.8600 3.9365 0.5235
11.8800 3.9432 0.5213
11.9000 3.9499 0.5208
11.9200 3.9566 0.5253
11.9400 3.9633 0.5200
11.9600 3.9700 0.5185
11.9800 3.9766 0.5256
12.0000 3.9832 0.5176
12.0200 3.9899 0.5191
12.0400 3.9966 0.5191
12.0600 4.0033 0.5187
12.0800 4.0100 0.5179
12.1000 4.0167 0.5159
12.1200 4.0233 0.5135
12.1400 4.0300 0.5179
12.1600 4.0366 0.5096
12.1800 4.0433 0.5169
12.2000 4.0499 0.5140
12.2200 4.0566 0.5106
12.2400 4.0633 0.5143
12.2600 4.0700 0.5145
12.2800 4.0767 0.5098
12.3000 4.0834 0.5144
12.3200 4.0900 0.5108
12.3400 4.0966 0.5067
12.3600 4.1032 0.5122
12.3800 4.1098 0.5005
12.4000 4.1166 0.5114
12.4200 4.1233 0.5128
12.4400 4.1300 0.5015
12.4600 4.1366 0.5065
12.4800 4.1433 0.5076
12.5000 4.1500 0.5022
12.5200 4.1566 0.5091
12.5400 4.1632 0.5053
12.5600 4.1698 0.5067
12.5800 4.1766 0.5073
12.6000 4.1833 0.5023
12.6200 4.1900 0.5042
12.6400 4.1966 0.5062
12.6600 4.2033 0.4963
12.6800 4.2100 0.5010
12.7000 4.2166 0.4998
12.7200 4.2232 0.5017
12.7400 4.2299 0.5036
12.7600 4.2366 0.4919
12.7800 4.2433 0.5019
12.8000 4.2500 0.4994
12.8200 4.2567 0.4925
12.8400 4.2634 0.4978
12.8600 4.2700 0.4994
12.8800 4.2766 0.4926
12.9000 4.2832 0.4979
12.9200 4.2899 0.4948
12.9400 4.2966 0.4924
12.9600 4.3033 0.4997
12.9800 4.3100 0.4933
13.0000 4.3167 0.4864
13.0200 4.3234 0.4967
13.0400 4.3300 0.4902
13.0600 4.3366 0.4918
13.0800 4.3432 0.4952
13.1000 4.3499 0.4884
13.1200 4.3566 0.4946
13.1400 4.3633 0.4931
13.1600 4.3700 0.4825
13.1800 4.3766 0.4919
13.2000 4.3833 0.4880
13.2200 4.3900 0.4853
13.2400 4.3966 0.4910
13.2600 4.4032 0.4798
13.2800 4.4098 0.4897
13.3000 4.4165 0.4900
13.3200 4.4232 0.4814
13.3400 4.4299 0.4813
13.3600 4.4366 0.4914
13.3800 4.4433 0.4758
13.4000 4.4500 0.4851
13.4200 4.4566 0.4842
13.4400 4.4632 0.4800
13.4600 4.4699 0.4855
13.4800 4.4766 0.4821
13.5000 4.4833 0.4749
13.5200 4.4900 0.4827
13.5400 4.4967 0.4792
13.5600 4.5034 0.4760
13.5800 4.5100 0.4793
13.6000 4.5166 0.4765
13.6200 4.5232 0.4771
13.6400 4.5299 0.4820
13.6600 4.5366 0.4750
13.6800 4.5433 0.4742
13.7000 4.5500 0.4802
13.7200 4.5566 0.4694
13.7400 4.5633 0.4795
13.7600 4.5700 0.4684
13.7800 4.5766 0.4691
13.8000 4.5832 0.4798
13.8200 4.5898 0.4714
13.8400 4.5965 0.4663
13.8600 4.6033 0.4723
13.8800 4.6099 0.4717
13.9000 4.6166 0.4659
13.9200 4.6233 0.4771
13.9400 4.6300 0.4670
13.9600 4.6366 0.4577
13.9800 4.6432 0.4760
14.0000 4.6498 0.4690
14.0200 4.6565 0.4573
14.0400 4.6633 0.4734
14.0600 4.6700 0.4614
14.0800 4.6766 0.4573
14.1000 4.6833 0.4754
14.1200 4.6900 0.4592
14.1400 4.6966 0.4561
14.1600 4.7032 0.4735
14.1800 4.7099 0.4587
14.2000 4.7166 0.4596
14.2200 4.7233 0.4717
14.2400 4.7300 0.4570
14.2600 4.7367 0.4591
14.2800 4.7433 0.4669
14.3000 4.7500 0.4498
14.3200 4.7566 0.4579
14.3400 4.7632 0.4660
14.3600 4.7699 0.4522
14.3800 4.7766 0.4553
14.4000 4.7833 0.4660
14.4200 4.7900 0.4475
14.4400 4.7967 0.4531
14.4600 4.8034 0.4641
14.4800 4.8100 0.4475
14.5000 4.8166 0.4504
14.5200 4.8232 0.4596
14.5400 4.8298 0.4514
14.5600 4.8365 0.4503
14.5800 4.8432 0.4560
14.6000 4.8499 0.4515
14.6200 4.8566 0.4512
14.6400 4.8633 0.4498
14.6600 4.8700 0.4519
14.6800 4.8766 0.4489
14.7000 4.8832 0.4478
14.7200 4.8898 0.4464
14.7400 4.8965 0.4498
14.7600 4.9032 0.4442
14.7800 4.9099 0.4467
14.8000 4.9166 0.4462
14.8200 4.9233 0.4455
14.8400 4.9300 0.4447
14.8600 4.9366 0.4408
14.8800 4.9432 0.4453
14.9000 4.9499 0.4478
14.9200 4.9566 0.4407
14.9400 4.9633 0.4404
14.9600 4.9700 0.4466
14.9800 4.9767 0.4359
15.0000 4.9834 0.4460
15.0200 4.9900 0.4413
15.0400 4.9966 0.4329
15.0600 5.0032 0.4429
15.0800 5.0098 0.4419
15.1000 5.0165 0.4352
15.1200 5.0233 0.4393
15.1400 5.0300 0.4335
15.1600 5.0367 0.4351
15.1800 5.0433 0.4403
15.2000 5.0500 0.4319
15.2200 5.0566 0.4293
15.2400 5.0633 0.4377
15.2600 5.0699 0.4275
15.2800 5.0766 0.4318
15.3000 5.0833 0.4380
15.3200 5.0900 0.4279
15.3400 5.0966 0.4301
15.3600 5.1033 0.4312
15.3800 5.1100 0.4229
15.4000 5.1166 0.4276
15.4200 5.1232 0.4321
15.4400 5.1298 0.4215
15.4600 5.1365 0.4278
15.4800 5.1432 0.4271
15.5000 5.1499 0.4228
15.5200 5.1566 0.4249
15.5400 5.1633 0.4217
15.5600 5.1700 0.4197
15.5800 5.1766 0.4311
15.6000 5.1832 0.4186
15.6200 5.1898 0.4167
15.6400 5.1965 0.4235
15.6600 5.2033 0.4188
15.6800 5.2100 0.4202
15.7000 5.2167 0.4205
15.7200 5.2233 0.4130
15.7400 5.2300 0.4166
15.7600 5.2367 0.4240
15.7800 5.2433 0.4145
15.8000 5.2499 0.4133
15.8200 5.2566 0.4153
15.8400 5.2633 0.4103
15.8600 5.2700 0.4144
15.8800 5.2767 0.4171
15.9000 5.2834 0.4089
15.9200 5.2900 0.4121
15.9400 5.2967 0.4084
15.9600 5.3032 0.4137
15.9800 5.3099 0.4124
16.0000 5.3165 0.4088
16.0200 5.3232 0.4072
16.0400 5.3300 0.4121
16.0600 5.3366 0.4095
16.0800 5.3433 0.4113
16.1000 5.3500 0.4059
16.1200 5.3566 0.4071
16.1400 5.3632 0.4115
16.1600 5.3699 0.4028
16.1800 5.3766 0.4065
16.2000 5.3833 0.4106
16.2200 5.3900 0.3988
16.2400 5.3966 0.4047
16.2600 5.4033 0.4109
16.2800 5.4100 0.3991
16.3000 5.4166 0.4049
16.3200 5.4233 0.4043
16.3400 5.4299 0.3989
16.3600 5.4366 0.4041
16.3800 5.4433 0.4107
16.4000 5.4500 0.3936
16.4200 5.4566 0.4051
16.4400 5.4633 0.4044
16.4600 5.4700 0.3881
16.4800 5.4767 0.4026
16.5000 5.4833 0.4036
16.5200 5.4899 0.3926
16.5400 5.4965 0.4025
16.5600 5.5033 0.3968
16.5800 5.5100 0.3893
16.6000 5.5167 0.4063
16.6200 5.5233 0.3939
16.6400 5.5300 0.3876
16.6600 5.5366 0.4019
16.6800 5.5432 0.3987
16.7000 5.5499 0.3822
16.7200 5.5565 0.4047
16.7400 5.5633 0.3959
16.7600 5.5700 0.3845
16.7800 5.5766 0.4009
16.8000 5.5833 0.3924
16.8200 5.5900 0.3850
16.8400 5.5966 0.4009
16.8600 5.6033 0.3878
16.8800 5.6099 0.3867
16.9000 5.6165 0.3955
16.9200 5.6232 0.3843
16.9400 5.6299 0.3865
16.9600 5.6366 0.3933
16.9800 5.6433 0.3865
17.0000 5.6500 0.3873
17.0200 5.6567 0.3886
17.0400 5.6633 0.3825
17.0600 5.6699 0.3895
17.0800 5.6765 0.3835
17.1000 5.6833 0.3781
17.1200 5.6900 0.3861
17.1400 5.6967 0.3849
17.1600 5.7034 0.3768
17.1800 5.7100 0.3897
17.2000 5.7167 0.3773
17.2200 5.7233 0.3788
17.2400 5.7299 0.3868
17.2600 5.7366 0.3760
17.2800 5.7433 0.3806
17.3000 5.7500 0.3855
17.3200 5.7567 0.3735
17.3400 5.7633 0.3782
17.3600 5.7700 0.3844
17.3800 5.7767 0.3715
17.4000 5.7833 0.3788
17.4200 5.7899 0.3792
17.4400 5.7965 0.3694
17.4600 5.8032 0.3791
17.4800 5.8099 0.3792
17.5000 5.8166 0.3661
17.5200 5.8233 0.3761
17.5400 5.8300 0.3747
17.5600 5.8366 0.3615
17.5800 5.8432 0.3750
17.6000 5.8498 0.3813
17.6200 5.8565 0.3601
17.6400 5.8632 0.3718
17.6600 5.8699 0.3738
17.6800 5.8766 0.3609
17.7000 5.8833 0.3740
17.7200 5.8900 0.3702
17.7400 5.8966 0.3583
17.7600 5.9033 0.3745
