Raw Data
Time Displacement Force
(s) (mm) (N)
0.0000 0.0000 0.3472
0.0200 0.0000 0.3610
0.0400 0.0008 0.3694
0.0600 0.0040 0.3905
0.0800 0.0094 0.3538
0.1000 0.0152 0.3386
0.1200 0.0211 0.3734
0.1400 0.0277 0.3631
0.1600 0.0350 0.3494
0.1800 0.0425 0.3595
0.2000 0.0497 0.3420
0.2200 0.0566 0.3447
0.2400 0.0632 0.3686
0.2600 0.0698 0.3505
0.2800 0.0765 0.3505
0.3000 0.0832 0.3646
0.3200 0.0899 0.3572
0.3400 0.0966 0.3599
0.3600 0.1034 0.3593
0.3800 0.1100 0.3567
0.4000 0.1167 0.3713
0.4200 0.1233 0.3562
0.4400 0.1300 0.3686
0.4600 0.1366 0.3709
0.4800 0.1433 0.3613
0.5000 0.1500 0.3707
0.5200 0.1567 0.3708
0.5400 0.1634 0.3675
0.5600 0.1701 0.3795
0.5800 0.1767 0.3701
0.6000 0.1833 0.3717
0.6200 0.1899 0.3852
0.6400 0.1966 0.3742
0.6600 0.2034 0.3709
0.6800 0.2101 0.3883
0.7000 0.2167 0.3740
0.7200 0.2234 0.3743
0.7400 0.2301 0.3950
0.7600 0.2367 0.3704
0.7800 0.2433 0.3878
0.8000 0.2499 0.3909
0.8200 0.2566 0.3741
0.8400 0.2633 0.3847
0.8600 0.2700 0.3937
0.8800 0.2767 0.3842
0.9000 0.2834 0.3941
0.9200 0.2901 0.3879
0.9400 0.2967 0.3839
0.9600 0.3033 0.3976
0.9800 0.3099 0.3946
1.0000 0.3166 0.3855
1.0200 0.3233 0.3941
1.0400 0.3300 0.3860
1.0600 0.3367 0.3896
1.0800 0.3434 0.3900
1.1000 0.3500 0.3861
1.1200 0.3566 0.3923
1.1400 0.3633 0.3887
1.1600 0.3699 0.3913
1.1800 0.3766 0.3886
1.2000 0.3834 0.3913
1.2200 0.3901 0.3839
1.2400 0.3967 0.3857
1.2600 0.4034 0.3883
1.2800 0.4101 0.3831
1.3000 0.4167 0.3843
1.3200 0.4233 0.3830
1.3400 0.4300 0.3879
1.3600 0.4367 0.3917
1.3800 0.4434 0.3764
1.4000 0.4501 0.3875
1.4200 0.4567 0.3847
1.4400 0.4634 0.3762
1.4600 0.4701 0.3811
1.4800 0.4767 0.3843
1.5000 0.4833 0.3796
1.5200 0.4899 0.3806
1.5400 0.4966 0.3853
1.5600 0.5033 0.3694
1.5800 0.5100 0.3814
1.6000 0.5167 0.3809
1.6200 0.5234 0.3673
1.6400 0.5300 0.3807
1.6600 0.5366 0.3809
1.6800 0.5433 0.3631
1.7000 0.5499 0.3859
1.7200 0.5566 0.3771
1.7400 0.5633 0.3637
1.7600 0.5700 0.3797
1.7800 0.5767 0.3707
1.8000 0.5834 0.3647
1.8200 0.5900 0.3852
1.8400 0.5967 0.3739
1.8600 0.6033 0.3652
1.8800 0.6100 0.3743
1.9000 0.6167 0.3692
1.9200 0.6233 0.3655
1.9400 0.6300 0.3728
1.9600 0.6367 0.3634
1.9800 0.6434 0.3660
2.0000 0.6501 0.3764
2.0200 0.6567 0.3585
2.0400 0.6633 0.3702
2.0600 0.6699 0.3731
2.0800 0.6766 0.3598
2.1000 0.6834 0.3630
2.1200 0.6901 0.3701
2.1400 0.6967 0.3610
2.1600 0.7034 0.3630
2.1800 0.7101 0.3639
2.2000 0.7167 0.3668
2.2200 0.7233 0.3700
2.2400 0.7299 0.3633
2.2600 0.7366 0.3675
2.2800 0.7434 0.3636
2.3000 0.7500 0.3524
2.3200 0.7567 0.3686
2.3400 0.7634 0.3591
2.3600 0.7700 0.3621
2.3800 0.7767 0.3654
2.4000 0.7833 0.3517
2.4200 0.7899 0.3642
2.4400 0.7966 0.3709
2.4600 0.8033 0.3522
2.4800 0.8100 0.3576
2.5000 0.8167 0.3653
2.5200 0.8234 0.3468
2.5400 0.8301 0.3658
2.5600 0.8367 0.3633
2.5800 0.8433 0.3446
2.6000 0.8499 0.3620
2.6200 0.8566 0.3610
2.6400 0.8634 0.3468
2.6600 0.8701 0.3668
2.6800 0.8768 0.3580
2.7000 0.8834 0.3452
2.7200 0.8901 0.3606
2.7400 0.8967 0.3576
2.7600 0.9033 0.3452
2.7800 0.9099 0.3650
2.8000 0.9166 0.3471
2.8200 0.9234 0.3489
2.8400 0.9301 0.3626
2.8600 0.9367 0.3509
2.8800 0.9434 0.3526
2.9000 0.9501 0.3541
2.9200 0.9567 0.3465
2.9400 0.9633 0.3524
2.9600 0.9699 0.3526
2.9800 0.9766 0.3480
3.0000 0.9833 0.3515
3.0200 0.9900 0.3519
3.0400 0.9967 0.3498
3.0600 1.0034 0.3544
3.0800 1.0101 0.3508
3.1000 1.0167 0.3485
3.1200 1.0233 0.3536
3.1400 1.0299 0.3484
3.1600 1.0366 0.3544
3.1800 1.0433 0.3444
3.2000 1.0500 0.3470
3.2200 1.0567 0.3494
3.2400 1.0634 0.3456
3.2600 1.0700 0.3450
3.2800 1.0767 0.3562
3.3000 1.0833 0.3471
3.3200 1.0899 0.3433
3.3400 1.0966 0.3502
3.3600 1.1033 0.3459
3.3800 1.1100 0.3472
3.4000 1.1167 0.3465
3.4200 1.1234 0.3440
3.4400 1.1301 0.3408
3.4600 1.1368 0.3471
3.4800 1.1434 0.3419
3.5000 1.1500 0.3468
3.5200 1.1566 0.3450
3.5400 1.1633 0.3402
3.5600 1.1700 0.3403
3.5800 1.1767 0.3508
3.6000 1.1834 0.3364
3.6200 1.1901 0.3395
3.6400 1.1967 0.3452
3.6600 1.2033 0.3417
3.6800 1.2099 0.3435
3.7000 1.2166 0.3449
3.7200 1.2233 0.3412
3.7400 1.2300 0.3411
3.7600 1.2367 0.3435
3.7800 1.2434 0.3363
3.8000 1.2501 0.3417
3.8200 1.2567 0.3375
3.8400 1.2633 0.3353
3.8600 1.2700 0.3442
3.8800 1.2766 0.3391
3.9000 1.2833 0.3359
3.9200 1.2900 0.3368
3.9400 1.2967 0.3340
3.9600 1.3033 0.3450
3.9800 1.3100 0.3322
4.0000 1.3167 0.3386
4.0200 1.3233 0.3445
4.0400 1.3300 0.3304
4.0600 1.3366 0.3335
4.0800 1.3433 0.3499
4.1000 1.3500 0.3303
4.1200 1.3567 0.3341
4.1400 1.3634 0.3425
4.1600 1.3701 0.3277
4.1800 1.3767 0.3376
4.2000 1.3833 0.3413
4.2200 1.3899 0.3243
4.2400 1.3966 0.3398
4.2600 1.4034 0.3388
4.2800 1.4101 0.3205
4.3000 1.4168 0.3441
4.3200 1.4234 0.3385
4.3400 1.4301 0.3244
4.3600 1.4367 0.3379
4.3800 1.4434 0.3418
4.4000 1.4500 0.3312
4.4200 1.4566 0.3394
4.4400 1.4633 0.3354
4.4600 1.4700 0.3324
4.4800 1.4767 0.3325
4.5000 1.4834 0.3340
4.5200 1.4900 0.3343
4.5400 1.4967 0.3341
4.5600 1.5033 0.3313
4.5800 1.5099 0.3342
4.6000 1.5166 0.3383
4.6200 1.5233 0.3360
4.6400 1.5300 0.3284
4.6600 1.5367 0.3324
4.6800 1.5434 0.3340
4.7000 1.5501 0.3340
4.7200 1.5567 0.3286
4.7400 1.5633 0.3384
4.7600 1.5700 0.3311
4.7800 1.5766 0.3273
4.8000 1.5833 0.3424
4.8200 1.5901 0.3275
4.8400 1.5968 0.3280
4.8600 1.6034 0.3392
4.8800 1.6101 0.3272
4.9000 1.6168 0.3270
4.9200 1.6234 0.3430
4.9400 1.6300 0.3271
4.9600 1.6366 0.3253
4.9800 1.6433 0.3375
5.0000 1.6501 0.3257
5.0200 1.6567 0.3284
5.0400 1.6634 0.3422
5.0600 1.6701 0.3164
5.0800 1.6768 0.3276
5.1000 1.6834 0.3416
5.1200 1.6900 0.3202
5.1400 1.6966 0.3267
5.1600 1.7033 0.3372
5.1800 1.7100 0.3173
5.2000 1.7167 0.3289
5.2200 1.7234 0.3359
5.2400 1.7301 0.3246
5.2600 1.7367 0.3260
5.2800 1.7434 0.3272
5.3000 1.7499 0.3250
5.3200 1.7566 0.3312
5.3400 1.7633 0.3262
5.3600 1.7700 0.3196
5.3800 1.7767 0.3258
5.4000 1.7834 0.3285
5.4200 1.7900 0.3222
5.4400 1.7967 0.3221
5.4600 1.8033 0.3358
5.4800 1.8100 0.3202
5.5000 1.8166 0.3176
5.5200 1.8233 0.3316
5.5400 1.8300 0.3162
5.5600 1.8367 0.3164
5.5800 1.8434 0.3320
5.6000 1.8501 0.3143
5.6200 1.8568 0.3172
5.6400 1.8634 0.3278
5.6600 1.8700 0.3174
5.6800 1.8766 0.3201
5.7000 1.8833 0.3268
5.7200 1.8900 0.3122
5.7400 1.8967 0.3188
5.7600 1.9034 0.3251
5.7800 1.9101 0.3123
5.8000 1.9167 0.3177
5.8200 1.9234 0.3209
5.8400 1.9300 0.3207
5.8600 1.9366 0.3210
5.8800 1.9433 0.3208
5.9000 1.9500 0.3099
5.9200 1.9567 0.3176
5.9400 1.9633 0.3174
5.9600 1.9700 0.3143
5.9800 1.9767 0.3132
6.0000 1.9833 0.3201
6.0200 1.9899 0.3157
6.0400 1.9966 0.3122
6.0600 2.0033 0.3230
6.0800 2.0100 0.3152
6.1000 2.0167 0.3071
6.1200 2.0234 0.3264
6.1400 2.0301 0.3101
6.1600 2.0368 0.3013
6.1800 2.0434 0.3205
6.2000 2.0500 0.3125
6.2200 2.0566 0.3090
6.2400 2.0633 0.3153
6.2600 2.0700 0.3116
6.2800 2.0767 0.3096
6.3000 2.0834 0.3211
6.3200 2.0901 0.3076
6.3400 2.0968 0.3049
6.3600 2.1034 0.3139
6.3800 2.1100 0.3045
6.4000 2.1166 0.3092
6.4200 2.1233 0.3198
6.4400 2.1300 0.3068
6.4600 2.1367 0.3026
6.4800 2.1434 0.3153
6.5000 2.1501 0.3151
6.5200 2.1568 0.3046
6.5400 2.1634 0.3094
6.5600 2.1700 0.3038
6.5800 2.1766 0.3050
6.6000 2.1833 0.3094
6.6200 2.1900 0.3107
6.6400 2.1967 0.3037
6.6600 2.2034 0.3038
6.6800 2.2101 0.3084
6.7000 2.2168 0.3076
6.7200 2.2234 0.3077
6.7400 2.2300 0.3024
6.7600 2.2366 0.3054
6.7800 2.2432 0.3024
6.8000 2.2500 0.3076
6.8200 2.2567 0.3026
6.8400 2.2634 0.3026
6.8600 2.2700 0.3070
6.8800 2.2767 0.3056
6.9000 2.2834 0.3006
6.9200 2.2900 0.3120
6.9400 2.2966 0.3010
6.9600 2.3033 0.3012
6.9800 2.3100 0.3097
7.0000 2.3167 0.2986
7.0200 2.3234 0.3009
7.0400 2.3301 0.3096
7.0600 2.3367 0.2952
7.0800 2.3434 0.3012
7.1000 2.3500 0.3132
7.1200 2.3566 0.2975
7.1400 2.3633 0.3060
7.1600 2.3700 0.3069
7.1800 2.3767 0.2947
7.2000 2.3834 0.3051
7.2200 2.3901 0.3065
7.2400 2.3968 0.2930
7.2600 2.4034 0.3039
7.2800 2.4100 0.3052
7.3000 2.4166 0.3004
7.3200 2.4233 0.3001
7.3400 2.4300 0.3082
7.3600 2.4367 0.2969
7.3800 2.4434 0.2993
7.4000 2.4501 0.3048
7.4200 2.4567 0.2966
7.4400 2.4634 0.2980
7.4600 2.4700 0.3060
7.4800 2.4766 0.2951
7.5000 2.4833 0.2981
7.5200 2.4900 0.3029
7.5400 2.4967 0.2964
7.5600 2.5033 0.2998
7.5800 2.5100 0.3035
7.6000 2.5167 0.2945
7.6200 2.5234 0.2946
7.6400 2.5300 0.3028
7.6600 2.5366 0.2934
7.6800 2.5433 0.2988
7.7000 2.5500 0.3019
7.7200 2.5567 0.2965
7.7400 2.5634 0.2957
7.7600 2.5701 0.2999
7.7800 2.5768 0.2902
7.8000 2.5834 0.2903
7.8200 2.5900 0.3032
7.8400 2.5966 0.2993
7.8600 2.6033 0.2893
7.8800 2.6100 0.2989
7.9000 2.6167 0.2918
7.9200 2.6234 0.2916
7.9400 2.6301 0.3070
7.9600 2.6367 0.2923
7.9800 2.6434 0.2883
8.0000 2.6500 0.3010
8.0200 2.6566 0.2883
8.0400 2.6633 0.2955
8.0600 2.6700 0.3039
8.0800 2.6767 0.2825
8.1000 2.6834 0.2896
8.1200 2.6901 0.2983
8.1400 2.6967 0.2866
8.1600 2.7034 0.2927
8.1800 2.7100 0.2990
8.2000 2.7166 0.2823
8.2200 2.7232 0.2949
8.2400 2.7299 0.3000
8.2600 2.7367 0.2836
8.2800 2.7434 0.2882
8.3000 2.7501 0.2979
8.3200 2.7568 0.2808
8.3400 2.7634 0.2869
8.3600 2.7700 0.2920
8.3800 2.7766 0.2844
8.4000 2.7833 0.2896
8.4200 2.7900 0.2858
8.4400 2.7967 0.2839
8.4600 2.8034 0.2870
8.4800 2.8101 0.2904
8.5000 2.8168 0.2865
8.5200 2.8234 0.2828
8.5400 2.8300 0.2873
8.5600 2.8366 0.2896
8.5800 2.8433 0.2820
8.6000 2.8500 0.2869
8.6200 2.8567 0.2874
8.6400 2.8634 0.2805
8.6600 2.8701 0.2788
8.6800 2.8768 0.2897
8.7000 2.8834 0.2798
8.7200 2.8900 0.2825
8.7400 2.8966 0.2835
8.7600 2.9033 0.2802
8.7800 2.9100 0.2845
8.8000 2.9167 0.2852
8.8200 2.9234 0.2764
8.8400 2.9301 0.2791
8.8600 2.9367 0.2870
8.8800 2.9434 0.2753
8.9000 2.9500 0.2746
8.9200 2.9566 0.2876
8.9400 2.9632 0.2730
8.9600 2.9699 0.2733
8.9800 2.9766 0.2873
9.0000 2.9833 0.2795
9.0200 2.9900 0.2841
9.0400 2.9967 0.2823
9.0600 3.0034 0.2730
9.0800 3.0100 0.2773
9.1000 3.0166 0.2919
9.1200 3.0233 0.2713
9.1400 3.0300 0.2803
9.1600 3.0367 0.2850
9.1800 3.0434 0.2744
9.2000 3.0501 0.2798
9.2200 3.0568 0.2892
9.2400 3.0634 0.2710
9.2600 3.0701 0.2756
9.2800 3.0766 0.2833
9.3000 3.0833 0.2749
9.3200 3.0900 0.2829
9.3400 3.0967 0.2832
9.3600 3.1034 0.2720
9.3800 3.1101 0.2799
9.4000 3.1168 0.2818
9.4200 3.1234 0.2713
9.4400 3.1300 0.2830
9.4600 3.1366 0.2844
9.4800 3.1433 0.2737
9.5000 3.1500 0.2754
9.5200 3.1567 0.2825
9.5400 3.1634 0.2701
9.5600 3.1701 0.2798
9.5800 3.1767 0.2841
9.6000 3.1834 0.2678
9.6200 3.1900 0.2787
9.6400 3.1966 0.2884
9.6600 3.2033 0.2750
9.6800 3.2100 0.2789
9.7000 3.2167 0.2790
9.7200 3.2233 0.2749
9.7400 3.2300 0.2756
9.7600 3.2367 0.2760
9.7800 3.2434 0.2739
9.8000 3.2500 0.2859
9.8200 3.2566 0.2763
9.8400 3.2633 0.2674
9.8600 3.2700 0.2876
9.8800 3.2767 0.2798
9.9000 3.2834 0.2655
9.9200 3.2901 0.2812
9.9400 3.2968 0.2787
9.9600 3.3034 0.2686
9.9800 3.3100 0.2758
10.0000 3.3166 0.2781
10.0200 3.3233 0.2795
10.0400 3.3300 0.2743
10.0600 3.3367 0.2712
10.0800 3.3434 0.2705
10.1000 3.3501 0.2928
10.1200 3.3567 0.2696
10.1400 3.3634 0.2618
10.1600 3.3700 0.2788
10.1800 3.3766 0.2797
10.2000 3.3833 0.2651
10.2200 3.3900 0.2714
10.2400 3.3967 0.2830
10.2600 3.4033 0.2658
10.2800 3.4100 0.2709
10.3000 3.4167 0.2854
10.3200 3.4234 0.2671
10.3400 3.4300 0.2710
10.3600 3.4366 0.2806
10.3800 3.4432 0.2606
10.4000 3.4499 0.2741
10.4200 3.4567 0.2789
10.4400 3.4634 0.2597
10.4600 3.4700 0.2719
10.4800 3.4767 0.2839
10.5000 3.4834 0.2587
10.5200 3.4900 0.2692
10.5400 3.4966 0.2743
10.5600 3.5033 0.2681
10.5800 3.5100 0.2697
10.6000 3.5167 0.2693
10.6200 3.5234 0.2585
10.6400 3.5300 0.2711
10.6600 3.5367 0.2661
10.6800 3.5434 0.2631
10.7000 3.5501 0.2713
10.7200 3.5567 0.2632
10.7400 3.5633 0.2633
10.7600 3.5700 0.2675
10.7800 3.5767 0.2672
10.8000 3.5834 0.2637
10.8200 3.5901 0.2653
10.8400 3.5967 0.2647
10.8600 3.6034 0.2629
10.8800 3.6100 0.2626
10.9000 3.6166 0.2656
10.9200 3.6233 0.2640
10.9400 3.6300 0.2635
10.9600 3.6367 0.2636
10.9800 3.6434 0.2638
11.0000 3.6501 0.2560
11.0200 3.6567 0.2618
11.0400 3.6634 0.2609
11.0600 3.6700 0.2601
11.0800 3.6766 0.2614
11.1000 3.6832 0.2651
11.1200 3.6899 0.2592
11.1400 3.6967 0.2589
11.1600 3.7034 0.2614
11.1800 3.7100 0.2570
11.2000 3.7167 0.2592
11.2200 3.7234 0.2587
11.2400 3.7300 0.2560
11.2600 3.7366 0.2569
11.2800 3.7433 0.2627
11.3000 3.7500 0.2545
11.3200 3.7567 0.2569
11.3400 3.7634 0.2611
11.3600 3.7701 0.2519
11.3800 3.7768 0.2552
11.4000 3.7835 0.2671
11.4200 3.7901 0.2472
11.4400 3.7967 0.2533
11.4600 3.8033 0.2614
11.4800 3.8100 0.2493
11.5000 3.8167 0.2546
11.5200 3.8234 0.2624
11.5400 3.8301 0.2480
11.5600 3.8368 0.2544
11.5800 3.8434 0.2597
11.6000 3.8501 0.2466
11.6200 3.8567 0.2566
11.6400 3.8633 0.2615
11.6600 3.8700 0.2435
11.6800 3.8766 0.2557
11.7000 3.8833 0.2584
11.7200 3.8900 0.2467
11.7400 3.8967 0.2547
11.7600 3.9034 0.2491
11.7800 3.9100 0.2476
11.8000 3.9166 0.2549
11.8200 3.9232 0.2528
11.8400 3.9299 0.2457
11.8600 3.9366 0.2542
11.8800 3.9433 0.2451
11.9000 3.9500 0.2459
11.9200 3.9567 0.2532
11.9400 3.9634 0.2489
11.9600 3.9700 0.2428
11.9800 3.9766 0.2492
12.0000 3.9833 0.2476
12.0200 3.9900 0.2513
12.0400 3.9967 0.2427
12.0600 4.0034 0.2484
12.0800 4.0101 0.2463
12.1000 4.0167 0.2404
12.1200 4.0234 0.2519
12.1400 4.0301 0.2451
12.1600 4.0367 0.2394
12.1800 4.0433 0.2545
12.2000 4.0500 0.2442
12.2200 4.0567 0.2296
12.2400 4.0634 0.2531
12.2600 4.0701 0.2447
12.2800 4.0767 0.2361
12.3000 4.0834 0.2511
12.3200 4.0901 0.2464
12.3400 4.0967 0.2304
12.3600 4.1033 0.2509
12.3800 4.1099 0.2436
12.4000 4.1166 0.2384
12.4200 4.1234 0.2509
12.4400 4.1300 0.2359
12.4600 4.1367 0.2399
12.4800 4.1434 0.2523
12.5000 4.1501 0.2342
12.5200 4.1567 0.2368
12.5400 4.1633 0.2493
12.5600 4.1699 0.2411
12.5800 4.1766 0.2392
12.6000 4.1833 0.2477
12.6200 4.1900 0.2320
12.6400 4.1967 0.2387
12.6600 4.2034 0.2528
12.6800 4.2101 0.2339
12.7000 4.2167 0.2354
12.7200 4.2233 0.2522
12.7400 4.2300 0.2382
12.7600 4.2367 0.2275
12.7800 4.2434 0.2557
12.8000 4.2501 0.2366
12.8200 4.2568 0.2286
12.8400 4.2634 0.2488
12.8600 4.2701 0.2395
12.8800 4.2767 0.2285
12.9000 4.2833 0.2513
12.9200 4.2900 0.2361
12.9400 4.2967 0.2350
12.9600 4.3034 0.2451
12.9800 4.3101 0.2318
13.0000 4.3168 0.2385
13.0200 4.3234 0.2464
13.0400 4.3301 0.2274
13.0600 4.3367 0.2382
13.0800 4.3433 0.2464
13.1000 4.3500 0.2280
13.1200 4.3567 0.2392
13.1400 4.3634 0.2442
13.1600 4.3700 0.2305
13.1800 4.3767 0.2378
13.2000 4.3834 0.2450
13.2200 4.3901 0.2320
13.2400 4.3967 0.2353
13.2600 4.4033 0.2413
13.2800 4.4099 0.2370
13.3000 4.4166 0.2304
13.3200 4.4233 0.2403
13.3400 4.4300 0.2379
13.3600 4.4367 0.2322
13.3800 4.4434 0.2339
13.4000 4.4501 0.2428
13.4200 4.4567 0.2332
13.4400 4.4633 0.2321
13.4600 4.4699 0.2359
13.4800 4.4767 0.2368
13.5000 4.4834 0.2351
13.5200 4.4901 0.2334
13.5400 4.4968 0.2361
13.5600 4.5035 0.2362
13.5800 4.5101 0.2299
13.6000 4.5167 0.2280
13.6200 4.5233 0.2442
13.6400 4.5300 0.2329
13.6600 4.5367 0.2282
13.6800 4.5434 0.2362
13.7000 4.5501 0.2312
13.7200 4.5567 0.2264
13.7400 4.5634 0.2372
13.7600 4.5700 0.2280
13.7800 4.5766 0.2329
13.8000 4.5833 0.2335
13.8200 4.5899 0.2306
13.8400 4.5966 0.2303
13.8600 4.6034 0.2261
13.8800 4.6100 0.2302
13.9000 4.6167 0.2353
13.9200 4.6234 0.2267
13.9400 4.6301 0.2288
13.9600 4.6367 0.2304
13.9800 4.6433 0.2306
14.0000 4.6499 0.2339
14.0200 4.6566 0.2283
14.0400 4.6633 0.2245
14.0600 4.6700 0.2346
14.0800 4.6767 0.2322
14.1000 4.6834 0.2200
14.1200 4.6900 0.2335
14.1400 4.6967 0.2228
14.1600 4.7033 0.2215
14.1800 4.7099 0.2354
14.2000 4.7166 0.2296
14.2200 4.7234 0.2167
14.2400 4.7301 0.2399
14.2600 4.7367 0.2255
14.2800 4.7434 0.2207
14.3000 4.7501 0.2325
14.3200 4.7567 0.2278
14.3400 4.7633 0.2180
14.3600 4.7700 0.2328
14.3800 4.7766 0.2300
14.4000 4.7834 0.2200
14.4200 4.7901 0.2284
14.4400 4.7968 0.2272
14.4600 4.8035 0.2270
14.4800 4.8101 0.2228
14.5000 4.8167 0.2214
14.5200 4.8233 0.2239
14.5400 4.8299 0.2285
14.5600 4.8366 0.2253
14.5800 4.8433 0.2203
14.6000 4.8500 0.2214
14.6200 4.8567 0.2288
14.6400 4.8634 0.2223
14.6600 4.8701 0.2214
14.6800 4.8767 0.2232
14.7000 4.8833 0.2259
14.7200 4.8899 0.2218
14.7400 4.8966 0.2216
14.7600 4.9033 0.2185
14.7800 4.9100 0.2240
14.8000 4.9167 0.2212
14.8200 4.9233 0.2187
14.8400 4.9300 0.2245
14.8600 4.9367 0.2224
14.8800 4.9433 0.2221
14.9000 4.9500 0.2227
14.9200 4.9566 0.2276
14.9400 4.9633 0.2212
14.9600 4.9700 0.2181
14.9800 4.9767 0.2220
15.0000 4.9834 0.2217
15.0200 4.9901 0.2158
15.0400 4.9967 0.2219
15.0600 5.0033 0.2187
15.0800 5.0099 0.2237
15.1000 5.0166 0.2148
15.1200 5.0234 0.2222
15.1400 5.0301 0.2239
15.1600 5.0367 0.2199
15.1800 5.0434 0.2169
15.2000 5.0501 0.2178
15.2200 5.0567 0.2180
15.2400 5.0633 0.2213
15.2600 5.0700 0.2162
15.2800 5.0766 0.2184
15.3000 5.0833 0.2209
15.3200 5.0900 0.2085
15.3400 5.0967 0.2224
15.3600 5.1034 0.2236
15.3800 5.1101 0.2049
15.4000 5.1167 0.2243
15.4200 5.1233 0.2212
15.4400 5.1299 0.2056
15.4600 5.1366 0.2328
15.4800 5.1433 0.2137
15.5000 5.1500 0.2017
15.5200 5.1567 0.2284
15.5400 5.1634 0.2127
15.5600 5.1700 0.2045
15.5800 5.1767 0.2267
15.6000 5.1833 0.2026
15.6200 5.1899 0.2116
15.6400 5.1966 0.2277
15.6600 5.2033 0.2017
15.6800 5.2101 0.2095
15.7000 5.2167 0.2231
15.7200 5.2234 0.1969
15.7400 5.2301 0.2184
15.7600 5.2368 0.2201
15.7800 5.2434 0.1991
15.8000 5.2500 0.2171
15.8200 5.2567 0.2166
15.8400 5.2634 0.2013
15.8600 5.2701 0.2166
15.8800 5.2767 0.2140
15.9000 5.2834 0.1995
15.9200 5.2901 0.2151
15.9400 5.2967 0.2098
15.9600 5.3033 0.2072
15.9800 5.3099 0.2153
16.0000 5.3166 0.2065
16.0200 5.3233 0.2049
16.0400 5.3300 0.2131
16.0600 5.3367 0.2055
16.0800 5.3434 0.2050
16.1000 5.3501 0.2055
16.1200 5.3567 0.2100
16.1400 5.3633 0.2050
16.1600 5.3699 0.2094
16.1800 5.3766 0.2117
16.2000 5.3833 0.2035
16.2200 5.3901 0.2022
16.2400 5.3967 0.2123
16.2600 5.4034 0.2039
16.2800 5.4101 0.1975
16.3000 5.4167 0.2110
16.3200 5.4234 0.1991
16.3400 5.4300 0.2039
16.3600 5.4367 0.2105
16.3800 5.4433 0.1984
16.4000 5.4500 0.2053
16.4200 5.4567 0.2077
16.4400 5.4634 0.1991
16.4600 5.4701 0.2066
16.4800 5.4767 0.2001
16.5000 5.4833 0.1983
16.5200 5.4899 0.2057
16.5400 5.4966 0.2018
16.5600 5.5033 0.1968
16.5800 5.5101 0.2050
16.6000 5.5167 0.1992
16.6200 5.5234 0.2029
16.6400 5.5301 0.2052
16.6600 5.5367 0.1919
16.6800 5.5433 0.2026
16.7000 5.5499 0.2049
16.7200 5.5566 0.1937
16.7400 5.5633 0.2036
16.7600 5.5700 0.1964
16.7800 5.5767 0.1958
16.8000 5.5834 0.2050
16.8200 5.5900 0.1937
16.8400 5.5967 0.1956
16.8600 5.6033 0.2036
16.8800 5.6100 0.1978
16.9000 5.6166 0.1922
16.9200 5.6233 0.2043
16.9400 5.6300 0.1905
16.9600 5.6367 0.1968
16.9800 5.6434 0.2002
17.0000 5.6501 0.1957
17.0200 5.6567 0.1995
17.0400 5.6633 0.1984
17.0600 5.6700 0.1910
17.0800 5.6766 0.2068
17.1000 5.6834 0.1934
17.1200 5.6901 0.1914
17.1400 5.6968 0.2026
17.1600 5.7034 0.1925
17.1800 5.7101 0.1905
17.2000 5.7167 0.2018
17.2200 5.7233 0.1875
17.2400 5.7300 0.1958
17.2600 5.7366 0.2087
17.2800 5.7433 0.1798
17.3000 5.7501 0.1979
17.3200 5.7567 0.2069
17.3400 5.7634 0.1832
17.3600 5.7701 0.1997
17.3800 5.7767 0.2036
17.4000 5.7834 0.1796
17.4200 5.7900 0.2007
17.4400 5.7966 0.1991
17.4600 5.8033 0.1846
17.4800 5.8100 0.2014
17.5000 5.8167 0.1950
17.5200 5.8234 0.1841
17.5400 5.8301 0.2033
17.5600 5.8367 0.1890
17.5800 5.8433 0.1900
17.6000 5.8499 0.2020
17.6200 5.8566 0.1924
17.6400 5.8633 0.1925
17.6600 5.8700 0.1958
17.6800 5.8767 0.1879
17.7000 5.8834 0.1959
17.7200 5.8900 0.1931
17.7400 5.8967 0.1850
17.7600 5.9033 0.2002
