Raw Data
Time Displacement Force
(s) (mm) (N)
0.0000 0.0000 0.1566
0.0200 0.0001 0.1761
0.0400 0.0020 0.2291
0.0600 0.0097 0.2382
0.0800 0.0215 0.1533
0.1000 0.0340 0.1402
0.1200 0.0466 0.1982
0.1400 0.0600 0.1641
0.1600 0.0741 0.1526
0.1800 0.0883 0.1788
0.2000 0.1022 0.1531
0.2200 0.1158 0.1514
0.2400 0.1292 0.1767
0.2600 0.1425 0.1577
0.2800 0.1558 0.1684
0.3000 0.1692 0.1753
0.3200 0.1826 0.1529
0.3400 0.1959 0.1760
0.3600 0.2092 0.1718
0.3800 0.2226 0.1587
0.4000 0.2359 0.1784
0.4200 0.2492 0.1660
0.4400 0.2625 0.1600
0.4600 0.2758 0.1745
0.4800 0.2892 0.1657
0.5000 0.3025 0.1631
0.5200 0.3159 0.1696
0.5400 0.3292 0.1637
0.5600 0.3425 0.1610
0.5800 0.3559 0.1727
0.6000 0.3692 0.1639
0.6200 0.3826 0.1626
0.6400 0.3959 0.1700
0.6600 0.4093 0.1638
0.6800 0.4226 0.1659
0.7000 0.4359 0.1669
0.7200 0.4493 0.1673
0.7400 0.4626 0.1639
0.7600 0.4759 0.1669
0.7800 0.4893 0.1653
0.8000 0.5026 0.1634
0.8200 0.5159 0.1684
0.8400 0.5292 0.1606
0.8600 0.5426 0.1606
0.8800 0.5559 0.1666
0.9000 0.5691 0.1670
0.9200 0.5825 0.1615
0.9400 0.5958 0.1622
0.9600 0.6092 0.1599
0.9800 0.6225 0.1541
1.0000 0.6358 0.1656
1.0200 0.6492 0.1613
1.0400 0.6626 0.1494
1.0600 0.6759 0.1661
1.0800 0.6893 0.1564
1.1000 0.7026 0.1517
1.1200 0.7159 0.1607
1.1400 0.7292 0.1569
1.1600 0.7425 0.1492
1.1800 0.7559 0.1616
1.2000 0.7692 0.1551
1.2200 0.7826 0.1496
1.2400 0.7959 0.1659
1.2600 0.8092 0.1520
1.2800 0.8225 0.1502
1.3000 0.8358 0.1637
1.3200 0.8492 0.1511
1.3400 0.8625 0.1509
1.3600 0.8759 0.1665
1.3800 0.8892 0.1551
1.4000 0.9026 0.1528
1.4200 0.9159 0.1620
1.4400 0.9292 0.1520
1.4600 0.9426 0.1530
1.4800 0.9559 0.1623
1.5000 0.9693 0.1512
1.5200 0.9826 0.1580
1.5400 0.9959 0.1622
1.5600 1.0092 0.1535
1.5800 1.0225 0.1542
1.6000 1.0358 0.1659
1.6200 1.0491 0.1490
1.6400 1.0625 0.1534
1.6600 1.0758 0.1627
1.6800 1.0892 0.1471
1.7000 1.1025 0.1496
1.7200 1.1159 0.1596
1.7400 1.1293 0.1430
1.7600 1.1427 0.1534
1.7800 1.1560 0.1557
1.8000 1.1693 0.1466
1.8200 1.1826 0.1538
1.8400 1.1959 0.1512
1.8600 1.2093 0.1493
1.8800 1.2226 0.1467
1.9000 1.2359 0.1531
1.9200 1.2492 0.1515
1.9400 1.2626 0.1442
1.9600 1.2759 0.1494
1.9800 1.2892 0.1474
2.0000 1.3025 0.1493
2.0200 1.3158 0.1512
2.0400 1.3292 0.1494
2.0600 1.3425 0.1436
2.0800 1.3559 0.1525
2.1000 1.3692 0.1503
2.1200 1.3826 0.1371
2.1400 1.3960 0.1565
2.1600 1.4093 0.1479
2.1800 1.4226 0.1416
2.2000 1.4359 0.1553
2.2200 1.4493 0.1482
2.2400 1.4625 0.1448
2.2600 1.4758 0.1576
2.2800 1.4892 0.1456
2.3000 1.5025 0.1423
2.3200 1.5158 0.1615
2.3400 1.5292 0.1469
2.3600 1.5425 0.1390
2.3800 1.5559 0.1579
2.4000 1.5693 0.1455
2.4200 1.5826 0.1418
2.4400 1.5959 0.1565
2.4600 1.6092 0.1413
2.4800 1.6226 0.1406
2.5000 1.6359 0.1563
2.5200 1.6492 0.1410
2.5400 1.6625 0.1413
2.5600 1.6759 0.1553
2.5800 1.6892 0.1424
2.6000 1.7026 0.1425
2.6200 1.7159 0.1533
2.6400 1.7293 0.1413
2.6600 1.7426 0.1420
2.6800 1.7559 0.1485
2.7000 1.7692 0.1416
2.7200 1.7825 0.1368
2.7400 1.7959 0.1476
2.7600 1.8092 0.1449
2.7800 1.8225 0.1337
2.8000 1.8358 0.1484
2.8200 1.8492 0.1411
2.8400 1.8626 0.1312
2.8600 1.8759 0.1506
2.8800 1.8893 0.1385
2.9000 1.9026 0.1326
2.9200 1.9159 0.1527
2.9400 1.9293 0.1363
2.9600 1.9426 0.1322
2.9800 1.9559 0.1528
3.0000 1.9692 0.1356
3.0200 1.9826 0.1314
3.0400 1.9959 0.1528
3.0600 2.0092 0.1298
3.0800 2.0225 0.1310
3.1000 2.0358 0.1501
3.1200 2.0492 0.1270
3.1400 2.0625 0.1332
3.1600 2.0759 0.1432
3.1800 2.0892 0.1265
3.2000 2.1026 0.1376
3.2200 2.1160 0.1395
3.2400 2.1293 0.1279
3.2600 2.1426 0.1372
3.2800 2.1560 0.1399
3.3000 2.1693 0.1265
3.3200 2.1826 0.1374
3.3400 2.1959 0.1377
3.3600 2.2092 0.1290
3.3800 2.2226 0.1369
3.4000 2.2359 0.1363
3.4200 2.2492 0.1304
3.4400 2.2625 0.1350
3.4600 2.2759 0.1322
3.4800 2.2892 0.1283
3.5000 2.3025 0.1350
3.5200 2.3159 0.1361
3.5400 2.3292 0.1288
3.5600 2.3426 0.1323
3.5800 2.3559 0.1355
3.6000 2.3693 0.1307
3.6200 2.3826 0.1297
3.6400 2.3960 0.1303
3.6600 2.4093 0.1305
3.6800 2.4226 0.1236
3.7000 2.4359 0.1325
3.7200 2.4492 0.1303
3.7400 2.4626 0.1272
3.7600 2.4759 0.1317
3.7800 2.4892 0.1281
3.8000 2.5025 0.1270
3.8200 2.5158 0.1344
3.8400 2.5292 0.1290
3.8600 2.5425 0.1310
3.8800 2.5558 0.1345
3.9000 2.5692 0.1295
3.9200 2.5826 0.1293
3.9400 2.5960 0.1308
3.9600 2.6093 0.1314
3.9800 2.6226 0.1329
4.0000 2.6359 0.1302
4.0200 2.6493 0.1278
4.0400 2.6626 0.1284
4.0600 2.6759 0.1339
4.0800 2.6892 0.1284
4.1000 2.7026 0.1274
4.1200 2.7159 0.1304
4.1400 2.7292 0.1293
4.1600 2.7425 0.1272
4.1800 2.7558 0.1286
4.2000 2.7692 0.1286
4.2200 2.7825 0.1271
4.2400 2.7958 0.1260
4.2600 2.8092 0.1314
4.2800 2.8226 0.1294
4.3000 2.8360 0.1275
4.3200 2.8493 0.1276
4.3400 2.8626 0.1289
4.3600 2.8759 0.1298
4.3800 2.8893 0.1275
4.4000 2.9026 0.1345
4.4200 2.9159 0.1254
4.4400 2.9292 0.1249
4.4600 2.9425 0.1347
4.4800 2.9559 0.1215
4.5000 2.9692 0.1272
4.5200 2.9825 0.1345
4.5400 2.9959 0.1174
4.5600 3.0092 0.1301
4.5800 3.0225 0.1324
4.6000 3.0359 0.1191
4.6200 3.0492 0.1291
4.6400 3.0625 0.1328
4.6600 3.0759 0.1152
4.6800 3.0892 0.1283
4.7000 3.1025 0.1342
4.7200 3.1159 0.1134
4.7400 3.1293 0.1294
4.7600 3.1426 0.1359
4.7800 3.1559 0.1137
4.8000 3.1693 0.1298
4.8200 3.1826 0.1323
4.8400 3.1959 0.1135
4.8600 3.2092 0.1297
4.8800 3.2225 0.1300
4.9000 3.2358 0.1130
4.9200 3.2491 0.1304
4.9400 3.2625 0.1288
4.9600 3.2758 0.1135
4.9800 3.2892 0.1315
5.0000 3.3026 0.1245
5.0200 3.3160 0.1119
5.0400 3.3293 0.1283
5.0600 3.3426 0.1225
5.0800 3.3560 0.1134
5.1000 3.3693 0.1248
5.1200 3.3826 0.1228
5.1400 3.3959 0.1143
5.1600 3.4092 0.1197
5.1800 3.4225 0.1243
5.2000 3.4359 0.1107
5.2200 3.4492 0.1230
5.2400 3.4625 0.1194
5.2600 3.4758 0.1130
5.2800 3.4892 0.1175
5.3000 3.5025 0.1213
5.3200 3.5158 0.1129
5.3400 3.5292 0.1181
5.3600 3.5426 0.1212
5.3800 3.5560 0.1096
5.4000 3.5693 0.1169
5.4200 3.5826 0.1188
5.4400 3.5960 0.1120
5.4600 3.6093 0.1185
5.4800 3.6226 0.1121
5.5000 3.6359 0.1156
5.5200 3.6492 0.1160
5.5400 3.6625 0.1137
5.5600 3.6759 0.1106
5.5800 3.6892 0.1187
5.6000 3.7025 0.1141
5.6200 3.7158 0.1091
5.6400 3.7292 0.1173
5.6600 3.7425 0.1083
5.6800 3.7559 0.1100
5.7000 3.7692 0.1167
5.7200 3.7826 0.1127
5.7400 3.7959 0.1085
5.7600 3.8093 0.1115
5.7800 3.8226 0.1135
5.8000 3.8359 0.1085
5.8200 3.8493 0.1154
5.8400 3.8626 0.1089
5.8600 3.8759 0.1098
5.8800 3.8892 0.1157
5.9000 3.9026 0.1060
5.9200 3.9159 0.1122
5.9400 3.9292 0.1125
5.9600 3.9425 0.1063
5.9800 3.9558 0.1145
6.0000 3.9692 0.1145
6.0200 3.9825 0.1116
6.0400 3.9959 0.1112
6.0600 4.0092 0.1126
6.0800 4.0226 0.1118
6.1000 4.0360 0.1095
6.1200 4.0493 0.1132
6.1400 4.0626 0.1109
6.1600 4.0759 0.1092
6.1800 4.0893 0.1083
6.2000 4.1026 0.1104
6.2200 4.1159 0.1112
6.2400 4.1292 0.1112
6.2600 4.1425 0.1083
6.2800 4.1559 0.1077
6.3000 4.1692 0.1103
6.3200 4.1825 0.1036
6.3400 4.1958 0.1111
6.3600 4.2092 0.1092
6.3800 4.2225 0.1086
6.4000 4.2358 0.1092
6.4200 4.2492 0.1039
6.4400 4.2625 0.1104
6.4600 4.2759 0.1089
6.4800 4.2893 0.1043
6.5000 4.3026 0.1104
6.5200 4.3159 0.1101
6.5400 4.3293 0.0982
6.5600 4.3426 0.1105
6.5800 4.3559 0.1122
6.6000 4.3692 0.0979
6.6200 4.3826 0.1168
6.6400 4.3959 0.1042
6.6600 4.4092 0.0985
6.6800 4.4225 0.1128
6.7000 4.4358 0.1030
6.7200 4.4492 0.1052
6.7400 4.4625 0.1113
6.7600 4.4758 0.1042
6.7800 4.4892 0.1068
6.8000 4.5025 0.1114
6.8200 4.5159 0.1025
6.8400 4.5293 0.1069
6.8600 4.5426 0.1169
6.8800 4.5559 0.1018
6.9000 4.5693 0.1050
6.9200 4.5826 0.1136
6.9400 4.5959 0.1004
6.9600 4.6092 0.1075
6.9800 4.6225 0.1160
7.0000 4.6359 0.0983
7.0200 4.6492 0.1076
7.0400 4.6625 0.1116
7.0600 4.6758 0.0981
7.0800 4.6891 0.1110
7.1000 4.7025 0.1121
7.1200 4.7158 0.0943
7.1400 4.7292 0.1063
7.1600 4.7426 0.1067
7.1800 4.7560 0.0938
7.2000 4.7693 0.1042
7.2200 4.7827 0.1057
7.2400 4.7960 0.0946
7.2600 4.8093 0.1021
7.2800 4.8226 0.1046
7.3000 4.8359 0.0907
7.3200 4.8492 0.1080
7.3400 4.8625 0.1036
7.3600 4.8758 0.0924
7.3800 4.8892 0.1049
7.4000 4.9025 0.1053
7.4200 4.9159 0.0917
7.4400 4.9292 0.1032
7.4600 4.9426 0.1058
7.4800 4.9559 0.0918
7.5000 4.9692 0.1056
7.5200 4.9826 0.1073
7.5400 4.9960 0.0889
7.5600 5.0093 0.1022
7.5800 5.0226 0.1046
7.6000 5.0359 0.0884
7.6200 5.0493 0.1039
7.6400 5.0626 0.1024
7.6600 5.0759 0.0894
7.6800 5.0892 0.1022
7.7000 5.1025 0.1011
7.7200 5.1159 0.0951
7.7400 5.1292 0.0984
7.7600 5.1425 0.0998
7.7800 5.1558 0.0902
7.8000 5.1692 0.1010
7.8200 5.1825 0.0974
7.8400 5.1959 0.0932
7.8600 5.2092 0.1022
7.8800 5.2226 0.0930
7.9000 5.2359 0.0933
7.9200 5.2493 0.0982
7.9400 5.2626 0.0959
7.9600 5.2759 0.0968
7.9800 5.2893 0.0965
8.0000 5.3026 0.0944
8.0200 5.3159 0.0904
8.0400 5.3292 0.0981
8.0600 5.3425 0.0952
8.0800 5.3559 0.0971
8.1000 5.3692 0.0969
8.1200 5.3825 0.0906
8.1400 5.3958 0.0944
8.1600 5.4092 0.1002
8.1800 5.4225 0.0918
8.2000 5.4359 0.0929
8.2200 5.4492 0.0990
8.2400 5.4625 0.0880
8.2600 5.4759 0.0937
8.2800 5.4893 0.0969
8.3000 5.5026 0.0861
8.3200 5.5159 0.0959
8.3400 5.5293 0.0924
8.3600 5.5426 0.0845
8.3800 5.5559 0.0960
8.4000 5.5692 0.0956
8.4200 5.5825 0.0901
8.4400 5.5959 0.0936
8.4600 5.6092 0.0897
8.4800 5.6225 0.0833
8.5000 5.6359 0.0981
8.5200 5.6492 0.0879
8.5400 5.6625 0.0860
8.5600 5.6759 0.0942
8.5800 5.6892 0.0844
8.6000 5.7026 0.0905
8.6200 5.7159 0.0979
8.6400 5.7293 0.0855
8.6600 5.7426 0.0874
8.6800 5.7559 0.0932
8.7000 5.7693 0.0847
8.7200 5.7826 0.0892
8.7400 5.7960 0.0921
8.7600 5.8092 0.0796
8.7800 5.8225 0.0970
8.8000 5.8359 0.0905
8.8200 5.8492 0.0808
8.8400 5.8625 0.0980
8.8600 5.8758 0.0900
8.8800 5.8892 0.0856
8.9000 5.9025 0.0889
8.9200 5.9159 0.0867
8.9400 5.9292 0.0823
8.9600 5.9426 0.0880
8.9800 5.9560 0.0870
9.0000 5.9693 0.0804
9.0200 5.9826 0.0873
9.0400 5.9959 0.0828
9.0600 6.0092 0.0867
9.0800 6.0226 0.0824
9.1000 6.0359 0.0815
9.1200 6.0492 0.0867
9.1400 6.0625 0.0745
9.1600 6.0758 0.0853
9.1800 6.0892 0.0841
9.2000 6.1025 0.0725
9.2200 6.1158 0.0844
9.2400 6.1291 0.0843
9.2600 6.1425 0.0735
9.2800 6.1559 0.0872
9.3000 6.1692 0.0790
9.3200 6.1825 0.0770
9.3400 6.1959 0.0854
9.3600 6.2093 0.0705
9.3800 6.2226 0.0780
9.4000 6.2359 0.0863
9.4200 6.2493 0.0687
9.4400 6.2626 0.0778
9.4600 6.2759 0.0825
9.4800 6.2892 0.0762
9.5000 6.3025 0.0766
9.5200 6.3158 0.0797
9.5400 6.3292 0.0722
9.5600 6.3425 0.0736
9.5800 6.3558 0.0802
9.6000 6.3692 0.0744
9.6200 6.3826 0.0731
9.6400 6.3959 0.0739
9.6600 6.4092 0.0746
9.6800 6.4226 0.0751
9.7000 6.4359 0.0780
9.7200 6.4493 0.0755
9.7400 6.4626 0.0718
9.7600 6.4759 0.0729
9.7800 6.4892 0.0698
9.8000 6.5026 0.0773
9.8200 6.5159 0.0755
9.8400 6.5293 0.0703
9.8600 6.5426 0.0769
9.8800 6.5559 0.0702
9.9000 6.5693 0.0691
9.9200 6.5826 0.0742
9.9400 6.5959 0.0720
9.9600 6.6092 0.0704
9.9800 6.6225 0.0721
10.0000 6.6359 0.0680
10.0200 6.6492 0.0720
10.0400 6.6625 0.0686
10.0600 6.6759 0.0684
10.0800 6.6893 0.0698
10.1000 6.7026 0.0637
10.1200 6.7159 0.0714
10.1400 6.7292 0.0711
10.1600 6.7426 0.0641
10.1800 6.7559 0.0724
10.2000 6.7693 0.0705
10.2200 6.7826 0.0698
10.2400 6.7959 0.0706
10.2600 6.8093 0.0726
10.2800 6.8226 0.0649
10.3000 6.8359 0.0759
10.3200 6.8492 0.0710
10.3400 6.8625 0.0669
10.3600 6.8759 0.0781
10.3800 6.8892 0.0665
10.4000 6.9025 0.0726
10.4200 6.9159 0.0752
10.4400 6.9293 0.0696
10.4600 6.9426 0.0700
10.4800 6.9559 0.0760
10.5000 6.9692 0.0719
10.5200 6.9826 0.0751
10.5400 6.9959 0.0744
10.5600 7.0092 0.0690
10.5800 7.0225 0.0739
10.6000 7.0359 0.0727
10.6200 7.0492 0.0738
10.6400 7.0625 0.0734
10.6600 7.0758 0.0690
10.6800 7.0892 0.0725
10.7000 7.1025 0.0702
10.7200 7.1159 0.0678
10.7400 7.1292 0.0710
10.7600 7.1425 0.0728
10.7800 7.1559 0.0730
10.8000 7.1693 0.0690
10.8200 7.1826 0.0677
10.8400 7.1959 0.0715
10.8600 7.2092 0.0634
10.8800 7.2226 0.0710
10.9000 7.2360 0.0710
10.9200 7.2493 0.0640
10.9400 7.2626 0.0685
10.9600 7.2759 0.0676
10.9800 7.2892 0.0645
11.0000 7.3025 0.0676
11.0200 7.3158 0.0669
11.0400 7.3291 0.0636
11.0600 7.3425 0.0652
11.0800 7.3559 0.0600
11.1000 7.3692 0.0612
11.1200 7.3825 0.0653
11.1400 7.3959 0.0539
11.1600 7.4093 0.0588
11.1800 7.4226 0.0612
11.2000 7.4359 0.0542
11.2200 7.4492 0.0602
11.2400 7.4626 0.0613
11.2600 7.4759 0.0548
11.2800 7.4893 0.0572
11.3000 7.5026 0.0593
11.3200 7.5159 0.0517
11.3400 7.5292 0.0639
11.3600 7.5426 0.0579
11.3800 7.5559 0.0488
11.4000 7.5692 0.0600
11.4200 7.5825 0.0591
11.4400 7.5959 0.0511
11.4600 7.6092 0.0611
11.4800 7.6225 0.0565
11.5000 7.6359 0.0539
11.5200 7.6493 0.0538
11.5400 7.6626 0.0629
11.5600 7.6759 0.0514
11.5800 7.6893 0.0573
11.6000 7.7026 0.0599
11.6200 7.7160 0.0501
11.6400 7.7293 0.0567
11.6600 7.7425 0.0609
11.6800 7.7558 0.0505
11.7000 7.7692 0.0537
11.7200 7.7825 0.0631
11.7400 7.7958 0.0495
11.7600 7.8092 0.0554
11.7800 7.8225 0.0614
11.8000 7.8359 0.0458
11.8200 7.8492 0.0593
11.8400 7.8625 0.0558
11.8600 7.8759 0.0469
11.8800 7.8892 0.0575
11.9000 7.9025 0.0565
11.9200 7.9159 0.0475
11.9400 7.9292 0.0609
11.9600 7.9426 0.0541
11.9800 7.9559 0.0434
12.0000 7.9693 0.0633
12.0200 7.9826 0.0523
12.0400 7.9959 0.0482
12.0600 8.0093 0.0638
12.0800 8.0226 0.0491
12.1000 8.0359 0.0493
12.1200 8.0492 0.0675
12.1400 8.0625 0.0541
12.1600 8.0758 0.0475
12.1800 8.0891 0.0629
12.2000 8.1025 0.0560
12.2200 8.1159 0.0542
12.2400 8.1293 0.0620
12.2600 8.1427 0.0547
12.2800 8.1560 0.0511
12.3000 8.1693 0.0585
12.3200 8.1826 0.0576
12.3400 8.1960 0.0554
12.3600 8.2093 0.0588
12.3800 8.2226 0.0588
12.4000 8.2359 0.0552
12.4200 8.2492 0.0608
12.4400 8.2625 0.0609
12.4600 8.2758 0.0509
12.4800 8.2891 0.0611
12.5000 8.3025 0.0606
12.5200 8.3158 0.0495
12.5400 8.3292 0.0581
12.5600 8.3425 0.0652
12.5800 8.3559 0.0476
12.6000 8.3693 0.0548
12.6200 8.3827 0.0623
12.6400 8.3960 0.0458
12.6600 8.4093 0.0604
12.6800 8.4226 0.0600
12.7000 8.4360 0.0425
12.7200 8.4493 0.0593
12.7400 8.4626 0.0633
12.7600 8.4759 0.0421
12.7800 8.4892 0.0612
12.8000 8.5025 0.0588
12.8200 8.5158 0.0426
12.8400 8.5291 0.0654
12.8600 8.5425 0.0579
12.8800 8.5559 0.0385
12.9000 8.5692 0.0615
12.9200 8.5826 0.0531
12.9400 8.5959 0.0440
12.9600 8.6093 0.0626
12.9800 8.6226 0.0467
13.0000 8.6359 0.0441
13.0200 8.6493 0.0625
13.0400 8.6626 0.0462
13.0600 8.6760 0.0437
13.0800 8.6893 0.0591
13.1000 8.7026 0.0441
13.1200 8.7159 0.0429
13.1400 8.7292 0.0577
13.1600 8.7426 0.0439
13.1800 8.7559 0.0453
13.2000 8.7692 0.0602
13.2200 8.7825 0.0444
13.2400 8.7959 0.0436
13.2600 8.8092 0.0548
13.2800 8.8225 0.0441
13.3000 8.8359 0.0463
13.3200 8.8493 0.0546
13.3400 8.8626 0.0386
13.3600 8.8760 0.0457
13.3800 8.8893 0.0504
13.4000 8.9026 0.0414
13.4200 8.9159 0.0436
13.4400 8.9293 0.0462
13.4600 8.9426 0.0413
13.4800 8.9559 0.0455
13.5000 8.9692 0.0446
13.5200 8.9826 0.0386
13.5400 8.9959 0.0427
13.5600 9.0092 0.0427
13.5800 9.0225 0.0389
13.6000 9.0359 0.0396
13.6200 9.0492 0.0431
13.6400 9.0625 0.0379
13.6600 9.0758 0.0339
13.6800 9.0892 0.0399
13.7000 9.1026 0.0328
13.7200 9.1159 0.0376
13.7400 9.1293 0.0378
13.7600 9.1426 0.0349
13.7800 9.1560 0.0326
13.8000 9.1693 0.0381
13.8200 9.1826 0.0342
13.8400 9.1959 0.0345
13.8600 9.2092 0.0336
13.8800 9.2226 0.0330
13.9000 9.2359 0.0310
13.9200 9.2492 0.0341
13.9400 9.2625 0.0354
13.9600 9.2759 0.0319
13.9800 9.2892 0.0335
14.0000 9.3025 0.0333
14.0200 9.3159 0.0322
14.0400 9.3292 0.0404
14.0600 9.3426 0.0287
14.0800 9.3559 0.0268
14.1000 9.3692 0.0384
14.1200 9.3826 0.0318
14.1400 9.3959 0.0326
14.1600 9.4093 0.0375
14.1800 9.4226 0.0291
14.2000 9.4359 0.0325
14.2200 9.4492 0.0375
14.2400 9.4626 0.0294
14.2600 9.4759 0.0283
14.2800 9.4891 0.0410
14.3000 9.5025 0.0291
14.3200 9.5158 0.0327
14.3400 9.5291 0.0413
14.3600 9.5425 0.0238
14.3800 9.5558 0.0349
14.4000 9.5693 0.0285
14.4200 9.5826 0.0289
14.4400 9.5960 0.0377
14.4600 9.6093 0.0290
14.4800 9.6226 0.0328
14.5000 9.6360 0.0371
14.5200 9.6493 0.0288
14.5400 9.6625 0.0343
14.5600 9.6758 0.0351
14.5800 9.6891 0.0270
14.6000 9.7025 0.0344
14.6200 9.7158 0.0305
14.6400 9.7292 0.0232
14.6600 9.7425 0.0360
14.6800 9.7559 0.0276
14.7000 9.7692 0.0249
14.7200 9.7826 0.0347
14.7400 9.7959 0.0255
14.7600 9.8093 0.0267
14.7800 9.8226 0.0342
14.8000 9.8360 0.0239
14.8200 9.8493 0.0300
14.8400 9.8626 0.0347
14.8600 9.8759 0.0228
14.8800 9.8893 0.0317
14.9000 9.9025 0.0357
14.9200 9.9159 0.0261
14.9400 9.9292 0.0285
14.9600 9.9426 0.0294
14.9800 9.9559 0.0241
15.0000 9.9692 0.0329
15.0200 9.9825 0.0299
15.0400 9.9959 0.0266
15.0600 10.0092 0.0294
15.0800 10.0225 0.0260
15.1000 10.0359 0.0310
15.1200 10.0492 0.0322
15.1400 10.0626 0.0257
15.1600 10.0759 0.0297
15.1800 10.0893 0.0294
15.2000 10.1026 0.0232
15.2200 10.1160 0.0332
15.2400 10.1293 0.0310
15.2600 10.1426 0.0253
15.2800 10.1559 0.0323
15.3000 10.1692 0.0260
15.3200 10.1826 0.0258
15.3400 10.1959 0.0312
15.3600 10.2092 0.0277
15.3800 10.2225 0.0221
15.4000 10.2358 0.0339
15.4200 10.2492 0.0229
15.4400 10.2625 0.0241
15.4600 10.2759 0.0315
15.4800 10.2892 0.0257
15.5000 10.3026 0.0226
15.5200 10.3160 0.0290
15.5400 10.3293 0.0241
15.5600 10.3426 0.0230
15.5800 10.3560 0.0307
15.6000 10.3693 0.0235
15.6200 10.3826 0.0282
15.6400 10.3959 0.0327
15.6600 10.4092 0.0249
15.6800 10.4225 0.0263
15.7000 10.4359 0.0315
15.7200 10.4492 0.0291
15.7400 10.4625 0.0315
15.7600 10.4759 0.0300
15.7800 10.4892 0.0290
15.8000 10.5025 0.0297
15.8200 10.5158 0.0307
15.8400 10.5292 0.0298
15.8600 10.5426 0.0248
15.8800 10.5559 0.0311
15.9000 10.5692 0.0386
15.9200 10.5826 0.0283
15.9400 10.5959 0.0318
15.9600 10.6093 0.0350
15.9800 10.6226 0.0288
16.0000 10.6359 0.0327
16.0200 10.6492 0.0371
16.0400 10.6626 0.0298
16.0600 10.6759 0.0313
16.0800 10.6892 0.0348
16.1000 10.7025 0.0317
16.1200 10.7158 0.0280
16.1400 10.7292 0.0374
16.1600 10.7425 0.0297
16.1800 10.7559 0.0325
16.2000 10.7692 0.0371
16.2200 10.7826 0.0277
16.2400 10.7960 0.0323
16.2600 10.8093 0.0319
16.2800 10.8226 0.0289
16.3000 10.8359 0.0382
16.3200 10.8493 0.0284
16.3400 10.8626 0.0269
16.3600 10.8759 0.0432
16.3800 10.8892 0.0288
16.4000 10.9026 0.0234
16.4200 10.9159 0.0410
16.4400 10.9292 0.0299
16.4600 10.9425 0.0225
16.4800 10.9558 0.0408
16.5000 10.9692 0.0327
16.5200 10.9825 0.0208
16.5400 10.9959 0.0379
16.5600 11.0092 0.0286
16.5800 11.0226 0.0247
16.6000 11.0360 0.0333
16.6200 11.0493 0.0260
16.6400 11.0626 0.0301
16.6600 11.0759 0.0325
16.6800 11.0893 0.0234
16.7000 11.1026 0.0270
16.7200 11.1158 0.0364
16.7400 11.1291 0.0240
16.7600 11.1425 0.0284
16.7800 11.1559 0.0359
16.8000 11.1692 0.0202
16.8200 11.1825 0.0290
16.8400 11.1959 0.0309
16.8600 11.2093 0.0218
16.8800 11.2226 0.0251
16.9000 11.2359 0.0286
16.9200 11.2492 0.0249
16.9400 11.2626 0.0242
16.9600 11.2759 0.0325
16.9800 11.2892 0.0201
17.0000 11.3025 0.0269
17.0200 11.3159 0.0297
17.0400 11.3293 0.0209
17.0600 11.3426 0.0220
17.0800 11.3559 0.0279
17.1000 11.3692 0.0216
17.1200 11.3826 0.0240
17.1400 11.3959 0.0249
17.1600 11.4092 0.0190
17.1800 11.4225 0.0299
17.2000 11.4358 0.0228
17.2200 11.4492 0.0154
17.2400 11.4625 0.0311
17.2600 11.4758 0.0138
17.2800 11.4892 0.0178
17.3000 11.5026 0.0284
17.3200 11.5159 0.0149
17.3400 11.5292 0.0180
17.3600 11.5426 0.0261
17.3800 11.5559 0.0138
17.4000 11.5693 0.0183
17.4200 11.5826 0.0239
17.4400 11.5959 0.0126
17.4600 11.6092 0.0219
17.4800 11.6226 0.0208
17.5000 11.6359 0.0125
17.5200 11.6492 0.0239
17.5400 11.6625 0.0120
17.5600 11.6758 0.0148
17.5800 11.6892 0.0189
17.6000 11.7025 0.0081
17.6200 11.7158 0.0180
17.6400 11.7292 0.0158
