Raw Data
Time Displacement Force
(s) (mm) (N)
0.0000 0.0000 -0.5318
0.0200 0.0000 -0.5312
0.0400 0.0008 -0.4824
0.0600 0.0039 -0.3804
0.0800 0.0093 -0.3601
0.1000 0.0150 -0.3480
0.1200 0.0208 -0.3044
0.1400 0.0275 -0.2976
0.1600 0.0349 -0.2654
0.1800 0.0424 -0.2310
0.2000 0.0496 -0.1978
0.2200 0.0564 -0.1642
0.2400 0.0631 -0.1312
0.2600 0.0698 -0.1009
0.2800 0.0764 -0.0672
0.3000 0.0831 -0.0362
0.3200 0.0899 -0.0091
0.3400 0.0966 0.0301
0.3600 0.1033 0.0469
0.3800 0.1099 0.0776
0.4000 0.1166 0.1083
0.4200 0.1233 0.1194
0.4400 0.1300 0.1502
0.4600 0.1366 0.1838
0.4800 0.1433 0.2116
0.5000 0.1500 0.2734
0.5200 0.1567 0.3107
0.5400 0.1633 0.3543
0.5600 0.1699 0.4131
0.5800 0.1765 0.4549
0.6000 0.1832 0.4955
0.6200 0.1899 0.5535
0.6400 0.1966 0.5939
0.6600 0.2033 0.6315
0.6800 0.2100 0.6679
0.7000 0.2167 0.6647
0.7200 0.2233 0.6627
0.7400 0.2299 0.6721
0.7600 0.2365 0.6692
0.7800 0.2432 0.6616
0.8000 0.2499 0.6758
0.8200 0.2566 0.6673
0.8400 0.2633 0.6627
0.8600 0.2700 0.6782
0.8800 0.2766 0.6680
0.9000 0.2833 0.6600
0.9200 0.2899 0.6835
0.9400 0.2965 0.6670
0.9600 0.3032 0.6684
0.9800 0.3099 0.6813
1.0000 0.3166 0.6672
1.0200 0.3233 0.6693
1.0400 0.3299 0.6827
1.0600 0.3366 0.6632
1.0800 0.3432 0.6683
1.1000 0.3499 0.6825
1.1200 0.3565 0.6653
1.1400 0.3632 0.6666
1.1600 0.3699 0.6866
1.1800 0.3766 0.6658
1.2000 0.3833 0.6653
1.2200 0.3900 0.6814
1.2400 0.3967 0.6643
1.2600 0.4033 0.6680
1.2800 0.4100 0.6765
1.3000 0.4166 0.6682
1.3200 0.4233 0.6709
1.3400 0.4300 0.6781
1.3600 0.4366 0.6578
1.3800 0.4433 0.6670
1.4000 0.4500 0.6717
1.4200 0.4567 0.6581
1.4400 0.4633 0.6672
1.4600 0.4699 0.6687
1.4800 0.4765 0.6550
1.5000 0.4832 0.6627
1.5200 0.4899 0.6635
1.5400 0.4966 0.6520
1.5600 0.5033 0.6577
1.5800 0.5099 0.6555
1.6000 0.5166 0.6433
1.6200 0.5233 0.6550
1.6400 0.5299 0.6493
1.6600 0.5365 0.6406
1.6800 0.5432 0.6476
1.7000 0.5499 0.6413
1.7200 0.5566 0.6354
1.7400 0.5633 0.6387
1.7600 0.5699 0.6363
1.7800 0.5766 0.6277
1.8000 0.5833 0.6333
1.8200 0.5899 0.6220
1.8400 0.5966 0.6236
1.8600 0.6032 0.6263
1.8800 0.6099 0.6172
1.9000 0.6166 0.6150
1.9200 0.6233 0.6179
1.9400 0.6300 0.6112
1.9600 0.6367 0.6105
1.9800 0.6433 0.6072
2.0000 0.6499 0.6015
2.0200 0.6565 0.6066
2.0400 0.6632 0.6027
2.0600 0.6699 0.5935
2.0800 0.6766 0.6041
2.1000 0.6833 0.5980
2.1200 0.6900 0.5850
2.1400 0.6967 0.5985
2.1600 0.7033 0.5899
2.1800 0.7099 0.5853
2.2000 0.7165 0.5912
2.2200 0.7232 0.5791
2.2400 0.7299 0.5773
2.2600 0.7366 0.5876
2.2800 0.7433 0.5695
2.3000 0.7499 0.5749
2.3200 0.7566 0.5799
2.3400 0.7633 0.5688
2.3600 0.7699 0.5707
2.3800 0.7765 0.5772
2.4000 0.7832 0.5639
2.4200 0.7899 0.5668
2.4400 0.7966 0.5676
2.4600 0.8032 0.5550
2.4800 0.8099 0.5669
2.5000 0.8167 0.5631
2.5200 0.8233 0.5517
2.5400 0.8299 0.5633
2.5600 0.8365 0.5652
2.5800 0.8432 0.5514
2.6000 0.8499 0.5583
2.6200 0.8566 0.5544
2.6400 0.8633 0.5458
2.6600 0.8700 0.5498
2.6800 0.8767 0.5543
2.7000 0.8833 0.5407
2.7200 0.8899 0.5494
2.7400 0.8965 0.5499
2.7600 0.9032 0.5357
2.7800 0.9099 0.5420
2.8000 0.9166 0.5422
2.8200 0.9233 0.5317
2.8400 0.9300 0.5356
2.8600 0.9367 0.5404
2.8800 0.9433 0.5271
2.9000 0.9499 0.5326
2.9200 0.9565 0.5363
2.9400 0.9632 0.5260
2.9600 0.9699 0.5283
2.9800 0.9766 0.5280
3.0000 0.9833 0.5216
3.0200 0.9900 0.5240
3.0400 0.9967 0.5225
3.0600 1.0033 0.5237
3.0800 1.0099 0.5129
3.1000 1.0164 0.5193
3.1200 1.0231 0.5241
3.1400 1.0298 0.5109
3.1600 1.0366 0.5106
3.1800 1.0433 0.5171
3.2000 1.0500 0.5055
3.2200 1.0566 0.5072
3.2400 1.0633 0.5097
3.2600 1.0699 0.5009
3.2800 1.0766 0.5074
3.3000 1.0832 0.5089
3.3200 1.0899 0.4886
3.3400 1.0966 0.5053
3.3600 1.1033 0.5043
3.3800 1.1100 0.4894
3.4000 1.1167 0.4946
3.4200 1.1234 0.4955
3.4400 1.1300 0.4908
3.4600 1.1366 0.4885
3.4800 1.1432 0.4994
3.5000 1.1499 0.4788
3.5200 1.1566 0.4906
3.5400 1.1633 0.4917
3.5600 1.1700 0.4742
3.5800 1.1767 0.4855
3.6000 1.1833 0.4875
3.6200 1.1899 0.4709
3.6400 1.1965 0.4827
3.6600 1.2032 0.4838
3.6800 1.2099 0.4655
3.7000 1.2166 0.4741
3.7200 1.2233 0.4827
3.7400 1.2300 0.4617
3.7600 1.2366 0.4751
3.7800 1.2433 0.4773
3.8000 1.2499 0.4515
3.8200 1.2565 0.4707
3.8400 1.2632 0.4755
3.8600 1.2699 0.4475
3.8800 1.2766 0.4639
3.9000 1.2833 0.4719
3.9200 1.2899 0.4392
3.9400 1.2966 0.4674
3.9600 1.3033 0.4588
3.9800 1.3100 0.4385
4.0000 1.3166 0.4684
4.0200 1.3232 0.4560
4.0400 1.3299 0.4338
4.0600 1.3366 0.4719
4.0800 1.3433 0.4508
4.1000 1.3500 0.4262
4.1200 1.3567 0.4638
4.1400 1.3633 0.4439
4.1600 1.3699 0.4299
4.1800 1.3765 0.4582
4.2000 1.3832 0.4380
4.2200 1.3899 0.4327
4.2400 1.3966 0.4554
4.2600 1.4033 0.4364
4.2800 1.4100 0.4277
4.3000 1.4167 0.4490
4.3200 1.4233 0.4315
4.3400 1.4300 0.4315
4.3600 1.4366 0.4442
4.3800 1.4432 0.4287
4.4000 1.4499 0.4370
4.4200 1.4566 0.4323
4.4400 1.4633 0.4262
4.4600 1.4700 0.4326
4.4800 1.4766 0.4323
4.5000 1.4833 0.4225
4.5200 1.4900 0.4259
4.5400 1.4966 0.4223
4.5600 1.5032 0.4300
4.5800 1.5099 0.4220
4.6000 1.5166 0.4173
4.6200 1.5233 0.4253
4.6400 1.5300 0.4182
4.6600 1.5367 0.4093
4.6800 1.5433 0.4260
4.7000 1.5499 0.4113
4.7200 1.5565 0.4038
4.7400 1.5632 0.4255
4.7600 1.5699 0.4047
4.7800 1.5766 0.3996
4.8000 1.5833 0.4178
4.8200 1.5900 0.4045
4.8400 1.5967 0.4003
4.8600 1.6034 0.4120
4.8800 1.6100 0.3928
4.9000 1.6166 0.3985
4.9200 1.6232 0.4092
4.9400 1.6299 0.3909
4.9600 1.6366 0.3895
4.9800 1.6433 0.4044
5.0000 1.6500 0.3841
5.0200 1.6567 0.3871
5.0400 1.6633 0.3966
5.0600 1.6700 0.3801
5.0800 1.6766 0.3795
5.1000 1.6832 0.3951
5.1200 1.6898 0.3771
5.1400 1.6965 0.3737
5.1600 1.7032 0.3916
5.1800 1.7100 0.3725
5.2000 1.7167 0.3672
5.2200 1.7234 0.3857
5.2400 1.7300 0.3680
5.2600 1.7366 0.3667
5.2800 1.7432 0.3828
5.3000 1.7498 0.3589
5.3200 1.7566 0.3685
5.3400 1.7633 0.3768
5.3600 1.7699 0.3521
5.3800 1.7766 0.3626
5.4000 1.7833 0.3697
5.4200 1.7899 0.3455
5.4400 1.7966 0.3629
5.4600 1.8032 0.3635
5.4800 1.8099 0.3433
5.5000 1.8166 0.3610
5.5200 1.8233 0.3561
5.5400 1.8300 0.3400
5.5600 1.8367 0.3556
5.5800 1.8434 0.3497
5.6000 1.8500 0.3381
5.6200 1.8566 0.3522
5.6400 1.8632 0.3481
5.6600 1.8699 0.3394
5.6800 1.8766 0.3470
5.7000 1.8833 0.3383
5.7200 1.8900 0.3384
5.7400 1.8967 0.3426
5.7600 1.9033 0.3333
5.7800 1.9099 0.3397
5.8000 1.9166 0.3334
5.8200 1.9232 0.3339
5.8400 1.9299 0.3340
5.8600 1.9366 0.3296
5.8800 1.9433 0.3310
5.9000 1.9499 0.3354
5.9200 1.9566 0.3256
5.9400 1.9633 0.3260
5.9600 1.9699 0.3297
5.9800 1.9765 0.3244
6.0000 1.9832 0.3231
6.0200 1.9899 0.3234
6.0400 1.9966 0.3189
6.0600 2.0033 0.3210
6.0800 2.0099 0.3226
6.1000 2.0166 0.3118
6.1200 2.0233 0.3225
6.1400 2.0300 0.3157
6.1600 2.0366 0.3073
6.1800 2.0432 0.3164
6.2000 2.0499 0.3183
6.2200 2.0566 0.3052
6.2400 2.0633 0.3162
6.2600 2.0700 0.3104
6.2800 2.0767 0.3059
6.3000 2.0833 0.3065
6.3200 2.0900 0.3076
6.3400 2.0966 0.3027
6.3600 2.1032 0.3105
6.3800 2.1099 0.3044
6.4000 2.1166 0.2939
6.4200 2.1233 0.3000
6.4400 2.1300 0.3019
6.4600 2.1366 0.2972
6.4800 2.1433 0.2943
6.5000 2.1500 0.2950
6.5200 2.1566 0.2942
6.5400 2.1633 0.2885
6.5600 2.1699 0.2945
6.5800 2.1766 0.2928
6.6000 2.1833 0.2820
6.6200 2.1900 0.2900
6.6400 2.1967 0.2845
6.6600 2.2034 0.2819
6.6800 2.2100 0.2864
6.7000 2.2166 0.2786
6.7200 2.2231 0.2745
6.7400 2.2298 0.2921
6.7600 2.2365 0.2735
6.7800 2.2432 0.2700
6.8000 2.2499 0.2840
6.8200 2.2566 0.2693
6.8400 2.2633 0.2682
6.8600 2.2700 0.2762
6.8800 2.2766 0.2696
6.9000 2.2832 0.2649
6.9200 2.2899 0.2738
6.9400 2.2966 0.2662
6.9600 2.3033 0.2615
6.9800 2.3100 0.2700
7.0000 2.3166 0.2598
7.0200 2.3233 0.2556
7.0400 2.3300 0.2697
7.0600 2.3366 0.2547
7.0800 2.3432 0.2573
7.1000 2.3499 0.2643
7.1200 2.3566 0.2504
7.1400 2.3633 0.2511
7.1600 2.3700 0.2612
7.1800 2.3767 0.2455
7.2000 2.3834 0.2496
7.2200 2.3900 0.2551
7.2400 2.3966 0.2429
7.2600 2.4032 0.2515
7.2800 2.4099 0.2516
7.3000 2.4166 0.2409
7.3200 2.4233 0.2458
7.3400 2.4300 0.2455
7.3600 2.4367 0.2440
7.3800 2.4433 0.2463
7.4000 2.4500 0.2381
7.4200 2.4566 0.2423
7.4400 2.4632 0.2414
7.4600 2.4699 0.2400
7.4800 2.4766 0.2390
7.5000 2.4833 0.2364
7.5200 2.4899 0.2308
7.5400 2.4966 0.2375
7.5600 2.5032 0.2288
7.5800 2.5099 0.2326
7.6000 2.5166 0.2338
7.6200 2.5232 0.2262
7.6400 2.5299 0.2337
7.6600 2.5366 0.2309
7.6800 2.5433 0.2161
7.7000 2.5500 0.2342
7.7200 2.5567 0.2246
7.7400 2.5634 0.2152
7.7600 2.5700 0.2308
7.7800 2.5766 0.2174
7.8000 2.5832 0.2141
7.8200 2.5899 0.2292
7.8400 2.5966 0.2182
7.8600 2.6033 0.2103
7.8800 2.6100 0.2255
7.9000 2.6167 0.2109
7.9200 2.6233 0.2066
7.9400 2.6300 0.2245
7.9600 2.6366 0.2134
7.9800 2.6432 0.1988
8.0000 2.6499 0.2201
8.0200 2.6566 0.2113
8.0400 2.6633 0.1931
8.0600 2.6700 0.2135
8.0800 2.6766 0.2092
8.1000 2.6833 0.1897
8.1200 2.6900 0.2155
8.1400 2.6966 0.1967
8.1600 2.7032 0.1921
8.1800 2.7098 0.2126
8.2000 2.7165 0.1925
8.2200 2.7233 0.1867
8.2400 2.7300 0.2081
8.2600 2.7366 0.1949
8.2800 2.7433 0.1791
8.3000 2.7500 0.2011
8.3200 2.7566 0.1907
8.3400 2.7632 0.1816
8.3600 2.7698 0.1993
8.3800 2.7765 0.1914
8.4000 2.7832 0.1744
8.4200 2.7899 0.1916
8.4400 2.7966 0.1865
8.4600 2.8033 0.1744
8.4800 2.8100 0.1865
8.5000 2.8166 0.1829
8.5200 2.8232 0.1657
8.5400 2.8299 0.1839
8.5600 2.8366 0.1826
8.5800 2.8433 0.1702
8.6000 2.8500 0.1775
8.6200 2.8567 0.1787
8.6400 2.8633 0.1630
8.6600 2.8700 0.1751
8.6800 2.8766 0.1751
8.7000 2.8832 0.1575
8.7200 2.8899 0.1755
8.7400 2.8965 0.1676
8.7600 2.9033 0.1544
8.7800 2.9100 0.1698
8.8000 2.9166 0.1716
8.8200 2.9233 0.1533
8.8400 2.9300 0.1651
8.8600 2.9366 0.1670
8.8800 2.9432 0.1517
8.9000 2.9498 0.1650
8.9200 2.9565 0.1640
8.9400 2.9632 0.1422
8.9600 2.9699 0.1646
8.9800 2.9766 0.1615
9.0000 2.9833 0.1406
9.0200 2.9900 0.1602
9.0400 2.9966 0.1554
9.0600 3.0032 0.1383
9.0800 3.0099 0.1571
9.1000 3.0166 0.1527
9.1200 3.0233 0.1374
9.1400 3.0300 0.1531
9.1600 3.0366 0.1449
9.1800 3.0433 0.1412
9.2000 3.0500 0.1510
9.2200 3.0566 0.1423
9.2400 3.0633 0.1366
9.2600 3.0699 0.1501
9.2800 3.0766 0.1403
9.3000 3.0833 0.1312
9.3200 3.0900 0.1428
9.3400 3.0967 0.1431
9.3600 3.1034 0.1288
9.3800 3.1100 0.1359
9.4000 3.1166 0.1410
9.4200 3.1232 0.1315
9.4400 3.1299 0.1295
9.4600 3.1366 0.1389
9.4800 3.1433 0.1262
9.5000 3.1500 0.1261
9.5200 3.1566 0.1378
9.5400 3.1633 0.1216
9.5600 3.1700 0.1272
9.5800 3.1766 0.1343
9.6000 3.1833 0.1170
9.6200 3.1899 0.1225
9.6400 3.1966 0.1352
9.6600 3.2032 0.1166
9.6800 3.2099 0.1211
9.7000 3.2166 0.1282
9.7200 3.2233 0.1120
9.7400 3.2299 0.1217
9.7600 3.2366 0.1241
9.7800 3.2432 0.1074
9.8000 3.2498 0.1211
9.8200 3.2565 0.1156
9.8400 3.2633 0.1088
9.8600 3.2700 0.1181
9.8800 3.2767 0.1120
9.9000 3.2834 0.1036
9.9200 3.2900 0.1121
9.9400 3.2966 0.1031
9.9600 3.3032 0.1067
9.9800 3.3099 0.1087
10.0000 3.3166 0.1014
10.0200 3.3233 0.1011
10.0400 3.3300 0.1004
10.0600 3.3367 0.1000
10.0800 3.3434 0.1028
10.1000 3.3500 0.0992
10.1200 3.3566 0.0921
10.1400 3.3633 0.0988
10.1600 3.3699 0.0926
10.1800 3.3765 0.0950
10.2000 3.3832 0.0949
10.2200 3.3899 0.0878
10.2400 3.3966 0.0917
10.2600 3.4033 0.0913
10.2800 3.4100 0.0825
10.3000 3.4166 0.0924
10.3200 3.4232 0.0838
10.3400 3.4298 0.0841
10.3600 3.4365 0.0884
10.3800 3.4432 0.0814
10.4000 3.4499 0.0825
10.4200 3.4566 0.0840
10.4400 3.4633 0.0800
10.4600 3.4700 0.0813
10.4800 3.4766 0.0792
10.5000 3.4832 0.0756
10.5200 3.4899 0.0786
10.5400 3.4966 0.0793
10.5600 3.5033 0.0738
10.5800 3.5100 0.0657
10.6000 3.5166 0.0741
10.6200 3.5233 0.0722
10.6400 3.5300 0.0728
10.6600 3.5367 0.0658
10.6800 3.5433 0.0670
10.7000 3.5499 0.0719
10.7200 3.5565 0.0653
10.7400 3.5632 0.0620
10.7600 3.5699 0.0698
10.7800 3.5766 0.0620
10.8000 3.5833 0.0611
10.8200 3.5899 0.0623
10.8400 3.5966 0.0641
10.8600 3.6032 0.0673
10.8800 3.6099 0.0585
10.9000 3.6166 0.0541
10.9200 3.6233 0.0643
10.9400 3.6300 0.0576
10.9600 3.6367 0.0545
10.9800 3.6433 0.0650
11.0000 3.6500 0.0526
11.0200 3.6566 0.0484
11.0400 3.6632 0.0588
11.0600 3.6699 0.0531
11.0800 3.6765 0.0482
11.1000 3.6832 0.0622
11.1200 3.6899 0.0411
11.1400 3.6966 0.0478
11.1600 3.7032 0.0602
11.1800 3.7099 0.0369
11.2000 3.7166 0.0442
11.2200 3.7232 0.0549
11.2400 3.7299 0.0356
11.2600 3.7365 0.0448
11.2800 3.7432 0.0481
11.3000 3.7500 0.0375
11.3200 3.7567 0.0431
11.3400 3.7634 0.0397
11.3600 3.7701 0.0344
11.3800 3.7767 0.0372
11.4000 3.7833 0.0418
11.4200 3.7899 0.0364
11.4400 3.7965 0.0346
11.4600 3.8033 0.0389
11.4800 3.8100 0.0338
11.5000 3.8167 0.0299
11.5200 3.8234 0.0382
11.5400 3.8300 0.0290
11.5600 3.8367 0.0297
11.5800 3.8432 0.0297
11.6000 3.8498 0.0315
11.6200 3.8565 0.0269
11.6400 3.8632 0.0310
11.6600 3.8699 0.0277
11.6800 3.8766 0.0202
11.7000 3.8833 0.0310
11.7200 3.8900 0.0258
11.7400 3.8967 0.0139
11.7600 3.9033 0.0259
11.7800 3.9098 0.0239
11.8000 3.9165 0.0145
11.8200 3.9232 0.0250
11.8400 3.9299 0.0196
11.8600 3.9366 0.0161
11.8800 3.9433 0.0245
11.9000 3.9500 0.0155
11.9200 3.9566 0.0131
11.9400 3.9632 0.0217
11.9600 3.9699 0.0108
11.9800 3.9765 0.0114
12.0000 3.9833 0.0173
12.0200 3.9900 0.0072
12.0400 3.9967 0.0082
12.0600 4.0034 0.0194
12.0800 4.0100 0.0075
12.1000 4.0167 -0.0009
12.1200 4.0233 0.0103
12.1400 4.0299 0.0064
12.1600 4.0366 -0.0026
12.1800 4.0433 0.0065
12.2000 4.0500 0.0005
12.2200 4.0566 -0.0023
12.2400 4.0633 0.0036
12.2600 4.0700 0.0010
12.2800 4.0767 -0.0063
12.3000 4.0833 -0.0001
12.3200 4.0899 -0.0031
12.3400 4.0965 -0.0116
12.3600 4.1032 0.0022
12.3800 4.1099 -0.0103
12.4000 4.1166 -0.0127
12.4200 4.1232 -0.0005
12.4400 4.1299 -0.0088
12.4600 4.1366 -0.0197
12.4800 4.1433 -0.0039
12.5000 4.1499 -0.0118
12.5200 4.1565 -0.0176
12.5400 4.1632 -0.0099
12.5600 4.1699 -0.0174
12.5800 4.1766 -0.0205
12.6000 4.1833 -0.0112
12.6200 4.1900 -0.0179
12.6400 4.1967 -0.0255
12.6600 4.2033 -0.0195
12.6800 4.2099 -0.0200
12.7000 4.2166 -0.0248
12.7200 4.2233 -0.0170
12.7400 4.2299 -0.0252
12.7600 4.2366 -0.0339
12.7800 4.2433 -0.0173
12.8000 4.2500 -0.0272
12.8200 4.2567 -0.0312
12.8400 4.2633 -0.0231
12.8600 4.2699 -0.0262
12.8800 4.2766 -0.0371
12.9000 4.2832 -0.0242
12.9200 4.2900 -0.0292
12.9400 4.2967 -0.0374
12.9600 4.3033 -0.0328
12.9800 4.3100 -0.0344
13.0000 4.3167 -0.0363
13.0200 4.3233 -0.0349
13.0400 4.3299 -0.0355
13.0600 4.3365 -0.0385
13.0800 4.3433 -0.0394
13.1000 4.3500 -0.0386
13.1200 4.3566 -0.0451
13.1400 4.3633 -0.0393
13.1600 4.3700 -0.0343
13.1800 4.3767 -0.0488
13.2000 4.3833 -0.0445
13.2200 4.3898 -0.0384
13.2400 4.3965 -0.0455
13.2600 4.4032 -0.0469
13.2800 4.4099 -0.0416
13.3000 4.4166 -0.0518
13.3200 4.4233 -0.0483
13.3400 4.4300 -0.0444
13.3600 4.4367 -0.0563
13.3800 4.4433 -0.0537
13.4000 4.4499 -0.0410
13.4200 4.4565 -0.0638
13.4400 4.4632 -0.0507
13.4600 4.4700 -0.0469
13.4800 4.4767 -0.0674
13.5000 4.4834 -0.0573
13.5200 4.4900 -0.0469
13.5400 4.4967 -0.0707
13.5600 4.5033 -0.0573
13.5800 4.5099 -0.0517
13.6000 4.5166 -0.0711
13.6200 4.5233 -0.0590
13.6400 4.5300 -0.0553
13.6600 4.5366 -0.0727
13.6800 4.5433 -0.0627
13.7000 4.5500 -0.0592
13.7200 4.5567 -0.0790
13.7400 4.5633 -0.0621
13.7600 4.5699 -0.0647
13.7800 4.5765 -0.0741
13.8000 4.5832 -0.0649
13.8200 4.5899 -0.0727
13.8400 4.5966 -0.0787
13.8600 4.6033 -0.0641
13.8800 4.6100 -0.0746
13.9000 4.6167 -0.0787
13.9200 4.6233 -0.0709
13.9400 4.6299 -0.0725
13.9600 4.6365 -0.0814
13.9800 4.6432 -0.0741
14.0000 4.6498 -0.0745
14.0200 4.6565 -0.0863
14.0400 4.6632 -0.0796
14.0600 4.6700 -0.0803
14.0800 4.6766 -0.0866
14.1000 4.6833 -0.0812
14.1200 4.6899 -0.0826
14.1400 4.6965 -0.0859
14.1600 4.7032 -0.0853
14.1800 4.7100 -0.0888
14.2000 4.7167 -0.0872
14.2200 4.7233 -0.0899
14.2400 4.7300 -0.0890
14.2600 4.7367 -0.0889
14.2800 4.7433 -0.0914
14.3000 4.7499 -0.0950
14.3200 4.7566 -0.0823
14.3400 4.7632 -0.0970
14.3600 4.7699 -0.0926
14.3800 4.7766 -0.0904
14.4000 4.7833 -0.1023
14.4200 4.7900 -0.0915
14.4400 4.7967 -0.0896
14.4600 4.8033 -0.1054
14.4800 4.8099 -0.0962
14.5000 4.8165 -0.0937
14.5200 4.8232 -0.1050
14.5400 4.8299 -0.0949
14.5600 4.8366 -0.1010
14.5800 4.8433 -0.1071
14.6000 4.8499 -0.1001
14.6200 4.8566 -0.1059
14.6400 4.8632 -0.1068
14.6600 4.8699 -0.0985
14.6800 4.8765 -0.1091
14.7000 4.8832 -0.1112
14.7200 4.8899 -0.1026
14.7400 4.8966 -0.1087
14.7600 4.9032 -0.1110
14.7800 4.9099 -0.1045
14.8000 4.9166 -0.1137
14.8200 4.9232 -0.1187
14.8400 4.9298 -0.1081
14.8600 4.9365 -0.1058
14.8800 4.9432 -0.1203
14.9000 4.9500 -0.1089
14.9200 4.9567 -0.1149
14.9400 4.9633 -0.1270
14.9600 4.9700 -0.1089
14.9800 4.9767 -0.1158
15.0000 4.9833 -0.1260
15.0200 4.9899 -0.1122
15.0400 4.9965 -0.1200
15.0600 5.0032 -0.1287
15.0800 5.0099 -0.1137
15.1000 5.0167 -0.1272
15.1200 5.0233 -0.1294
15.1400 5.0300 -0.1192
15.1600 5.0367 -0.1283
15.1800 5.0433 -0.1312
15.2000 5.0499 -0.1200
15.2200 5.0566 -0.1344
15.2400 5.0632 -0.1344
15.2600 5.0699 -0.1248
15.2800 5.0766 -0.1315
15.3000 5.0833 -0.1353
15.3200 5.0900 -0.1258
15.3400 5.0967 -0.1361
15.3600 5.1033 -0.1375
15.3800 5.1099 -0.1279
15.4000 5.1165 -0.1391
15.4200 5.1231 -0.1380
15.4400 5.1298 -0.1327
15.4600 5.1366 -0.1503
15.4800 5.1433 -0.1705
15.5000 5.1499 -0.1590
15.5200 5.1566 -0.1651
15.5400 5.1633 -0.1664
15.5600 5.1699 -0.1586
15.5800 5.1765 -0.1571
15.6000 5.1832 -0.1668
15.6200 5.1899 -0.1591
15.6400 5.1966 -0.1644
15.6600 5.2032 -0.1687
15.6800 5.2100 -0.1627
15.7000 5.2167 -0.1638
15.7200 5.2234 -0.1711
15.7400 5.2300 -0.1625
15.7600 5.2366 -0.1654
15.7800 5.2433 -0.1714
15.8000 5.2500 -0.1644
15.8200 5.2567 -0.1637
15.8400 5.2634 -0.1720
15.8600 5.2700 -0.1664
15.8800 5.2767 -0.1654
15.9000 5.2833 -0.1713
15.9200 5.2899 -0.1703
15.9400 5.2965 -0.1683
15.9600 5.3032 -0.1724
15.9800 5.3099 -0.1732
16.0000 5.3166 -0.1724
16.0200 5.3233 -0.1738
16.0400 5.3300 -0.1712
16.0600 5.3366 -0.1779
16.0800 5.3433 -0.1705
16.1000 5.3499 -0.1752
16.1200 5.3565 -0.1759
16.1400 5.3632 -0.1744
16.1600 5.3699 -0.1733
16.1800 5.3766 -0.1799
16.2000 5.3833 -0.1769
16.2200 5.3899 -0.1785
16.2400 5.3966 -0.1726
16.2600 5.4033 -0.1805
16.2800 5.4100 -0.1788
16.3000 5.4166 -0.1753
16.3200 5.4233 -0.1830
16.3400 5.4299 -0.1845
16.3600 5.4366 -0.1790
16.3800 5.4433 -0.1805
16.4000 5.4500 -0.1862
16.4200 5.4566 -0.1823
16.4400 5.4633 -0.1880
16.4600 5.4699 -0.1813
16.4800 5.4765 -0.1822
16.5000 5.4832 -0.1853
16.5200 5.4900 -0.1882
16.5400 5.4967 -0.1868
16.5600 5.5034 -0.1919
16.5800 5.5100 -0.1874
16.6000 5.5167 -0.1929
16.6200 5.5233 -0.1893
16.6400 5.5299 -0.1898
16.6600 5.5365 -0.1937
16.6800 5.5432 -0.1913
16.7000 5.5499 -0.1941
16.7200 5.5566 -0.1949
16.7400 5.5633 -0.1943
16.7600 5.5700 -0.1987
16.7800 5.5766 -0.1984
16.8000 5.5833 -0.1942
16.8200 5.5899 -0.2055
16.8400 5.5965 -0.1972
16.8600 5.6032 -0.1933
16.8800 5.6099 -0.2125
16.9000 5.6166 -0.2021
16.9200 5.6233 -0.1962
16.9400 5.6299 -0.2077
16.9600 5.6367 -0.2022
16.9800 5.6433 -0.2041
17.0000 5.6499 -0.2074
17.0200 5.6565 -0.2053
17.0400 5.6632 -0.2040
17.0600 5.6699 -0.2133
17.0800 5.6767 -0.2027
17.1000 5.6833 -0.2099
17.1200 5.6900 -0.2151
17.1400 5.6967 -0.2045
17.1600 5.7033 -0.2148
17.1800 5.7099 -0.2156
17.2000 5.7165 -0.2029
17.2200 5.7232 -0.2186
17.2400 5.7298 -0.2193
17.2600 5.7365 -0.2117
17.2800 5.7432 -0.2155
17.3000 5.7500 -0.2217
17.3200 5.7567 -0.2148
17.3400 5.7634 -0.2161
17.3600 5.7700 -0.2290
17.3800 5.7766 -0.2121
17.4000 5.7832 -0.2228
17.4200 5.7899 -0.2186
17.4400 5.7966 -0.2178
17.4600 5.8033 -0.2255
17.4800 5.8100 -0.2264
17.5000 5.8167 -0.2165
