Raw Data
Time Displacement Force
(s) (mm) (N)
0.0000 0.0000 0.4410
0.0200 0.0001 0.4459
0.0400 0.0021 0.5441
0.0600 0.0098 0.5775
0.0800 0.0217 0.4978
0.1000 0.0343 0.5118
0.1200 0.0469 0.5330
0.1400 0.0602 0.4967
0.1600 0.0743 0.5064
0.1800 0.0884 0.4996
0.2000 0.1024 0.4797
0.2200 0.1160 0.5062
0.2400 0.1294 0.4978
0.2600 0.1426 0.4796
0.2800 0.1560 0.5031
0.3000 0.1693 0.4884
0.3200 0.1827 0.4803
0.3400 0.1961 0.5112
0.3600 0.2094 0.4963
0.3800 0.2227 0.4927
0.4000 0.2361 0.5109
0.4200 0.2494 0.4885
0.4400 0.2627 0.4922
0.4600 0.2760 0.5047
0.4800 0.2894 0.4823
0.5000 0.3027 0.4833
0.5200 0.3160 0.4906
0.5400 0.3293 0.4746
0.5600 0.3427 0.4867
0.5800 0.3560 0.4930
0.6000 0.3694 0.4708
0.6200 0.3827 0.4814
0.6400 0.3961 0.4936
0.6600 0.4094 0.4681
0.6800 0.4228 0.4856
0.7000 0.4361 0.4876
0.7200 0.4494 0.4692
0.7400 0.4627 0.4811
0.7600 0.4761 0.4816
0.7800 0.4894 0.4703
0.8000 0.5028 0.4792
0.8200 0.5161 0.4766
0.8400 0.5294 0.4739
0.8600 0.5428 0.4739
0.8800 0.5560 0.4768
0.9000 0.5693 0.4741
0.9200 0.5826 0.4735
0.9400 0.5960 0.4757
0.9600 0.6093 0.4701
0.9800 0.6227 0.4663
1.0000 0.6360 0.4717
1.0200 0.6494 0.4676
1.0400 0.6628 0.4570
1.0600 0.6761 0.4698
1.0800 0.6894 0.4697
1.1000 0.7027 0.4622
1.1200 0.7161 0.4688
1.1400 0.7294 0.4594
1.1600 0.7427 0.4568
1.1800 0.7560 0.4658
1.2000 0.7694 0.4606
1.2200 0.7827 0.4549
1.2400 0.7960 0.4623
1.2600 0.8093 0.4533
1.2800 0.8227 0.4515
1.3000 0.8360 0.4642
1.3200 0.8494 0.4502
1.3400 0.8627 0.4498
1.3600 0.8760 0.4597
1.3800 0.8894 0.4488
1.4000 0.9028 0.4448
1.4200 0.9161 0.4611
1.4400 0.9294 0.4490
1.4600 0.9427 0.4418
1.4800 0.9561 0.4529
1.5000 0.9695 0.4443
1.5200 0.9828 0.4416
1.5400 0.9960 0.4533
1.5600 1.0094 0.4437
1.5800 1.0227 0.4467
1.6000 1.0360 0.4513
1.6200 1.0493 0.4400
1.6400 1.0626 0.4416
1.6600 1.0760 0.4452
1.6800 1.0894 0.4398
1.7000 1.1027 0.4373
1.7200 1.1161 0.4424
1.7400 1.1294 0.4391
1.7600 1.1428 0.4307
1.7800 1.1561 0.4386
1.8000 1.1694 0.4395
1.8200 1.1828 0.4305
1.8400 1.1961 0.4342
1.8600 1.2095 0.4383
1.8800 1.2228 0.4284
1.9000 1.2360 0.4365
1.9200 1.2494 0.4352
1.9400 1.2627 0.4224
1.9600 1.2761 0.4342
1.9800 1.2893 0.4306
2.0000 1.3027 0.4231
2.0200 1.3160 0.4323
2.0400 1.3293 0.4248
2.0600 1.3427 0.4192
2.0800 1.3560 0.4298
2.1000 1.3694 0.4204
2.1200 1.3828 0.4180
2.1400 1.3961 0.4234
2.1600 1.4094 0.4160
2.1800 1.4228 0.4162
2.2000 1.4361 0.4233
2.2200 1.4494 0.4108
2.2400 1.4627 0.4236
2.2600 1.4760 0.4153
2.2800 1.4893 0.4122
2.3000 1.5027 0.4208
2.3200 1.5160 0.4082
2.3400 1.5294 0.4156
2.3600 1.5427 0.4144
2.3800 1.5561 0.4074
2.4000 1.5694 0.4180
2.4200 1.5827 0.4103
2.4400 1.5961 0.4055
2.4600 1.6094 0.4158
2.4800 1.6227 0.4073
2.5000 1.6360 0.4066
2.5200 1.6493 0.4204
2.5400 1.6627 0.4061
2.5600 1.6760 0.4025
2.5800 1.6894 0.4153
2.6000 1.7028 0.3994
2.6200 1.7161 0.4031
2.6400 1.7294 0.4127
2.6600 1.7428 0.3948
2.6800 1.7561 0.4065
2.7000 1.7694 0.4101
2.7200 1.7827 0.3924
2.7400 1.7960 0.4040
2.7600 1.8094 0.4058
2.7800 1.8227 0.3891
2.8000 1.8360 0.4017
2.8200 1.8493 0.4063
2.8400 1.8627 0.3867
2.8600 1.8761 0.4043
2.8800 1.8894 0.3968
2.9000 1.9027 0.3866
2.9200 1.9161 0.4019
2.9400 1.9294 0.3971
2.9600 1.9428 0.3903
2.9800 1.9561 0.3963
3.0000 1.9694 0.3909
3.0200 1.9828 0.3915
3.0400 1.9961 0.3946
3.0600 2.0094 0.3895
3.0800 2.0227 0.3925
3.1000 2.0360 0.3891
3.1200 2.0494 0.3873
3.1400 2.0627 0.3941
3.1600 2.0760 0.3823
3.1800 2.0894 0.3870
3.2000 2.1028 0.3922
3.2200 2.1161 0.3803
3.2400 2.1295 0.3831
3.2600 2.1428 0.3907
3.2800 2.1561 0.3772
3.3000 2.1695 0.3874
3.3200 2.1828 0.3877
3.3400 2.1961 0.3792
3.3600 2.2094 0.3871
3.3800 2.2227 0.3845
3.4000 2.2360 0.3795
3.4200 2.2493 0.3905
3.4400 2.2627 0.3777
3.4600 2.2760 0.3752
3.4800 2.2894 0.3870
3.5000 2.3027 0.3779
3.5200 2.3160 0.3738
3.5400 2.3294 0.3830
3.5600 2.3427 0.3738
3.5800 2.3561 0.3713
3.6000 2.3694 0.3783
3.6200 2.3828 0.3690
3.6400 2.3961 0.3766
3.6600 2.4095 0.3723
3.6800 2.4228 0.3695
3.7000 2.4361 0.3762
3.7200 2.4494 0.3708
3.7400 2.4627 0.3653
3.7600 2.4761 0.3801
3.7800 2.4893 0.3667
3.8000 2.5026 0.3645
3.8200 2.5160 0.3732
3.8400 2.5293 0.3599
3.8600 2.5427 0.3662
3.8800 2.5560 0.3835
3.9000 2.5694 0.3549
3.9200 2.5828 0.3592
3.9400 2.5961 0.3820
3.9600 2.6095 0.3501
3.9800 2.6227 0.3602
4.0000 2.6361 0.3734
4.0200 2.6494 0.3579
4.0400 2.6628 0.3600
4.0600 2.6761 0.3726
4.0800 2.6894 0.3489
4.1000 2.7027 0.3652
4.1200 2.7161 0.3678
4.1400 2.7294 0.3481
4.1600 2.7427 0.3660
4.1800 2.7560 0.3568
4.2000 2.7694 0.3448
4.2200 2.7827 0.3665
4.2400 2.7960 0.3506
4.2600 2.8094 0.3493
4.2800 2.8227 0.3626
4.3000 2.8361 0.3450
4.3200 2.8494 0.3484
4.3400 2.8628 0.3635
4.3600 2.8761 0.3441
4.3800 2.8895 0.3472
4.4000 2.9028 0.3592
4.4200 2.9161 0.3451
4.4400 2.9294 0.3512
4.4600 2.9427 0.3546
4.4800 2.9560 0.3429
4.5000 2.9694 0.3526
4.5200 2.9827 0.3514
4.5400 2.9960 0.3405
4.5600 3.0094 0.3501
4.5800 3.0227 0.3469
4.6000 3.0360 0.3424
4.6200 3.0494 0.3499
4.6400 3.0627 0.3460
4.6600 3.0761 0.3436
4.6800 3.0894 0.3431
4.7000 3.1027 0.3449
4.7200 3.1161 0.3389
4.7400 3.1294 0.3456
4.7600 3.1428 0.3446
4.7800 3.1561 0.3390
4.8000 3.1694 0.3413
4.8200 3.1828 0.3411
4.8400 3.1961 0.3403
4.8600 3.2094 0.3382
4.8800 3.2227 0.3433
4.9000 3.2359 0.3322
4.9200 3.2493 0.3420
4.9400 3.2626 0.3461
4.9600 3.2760 0.3294
4.9800 3.2893 0.3368
5.0000 3.3028 0.3422
5.0200 3.3162 0.3262
5.0400 3.3295 0.3314
5.0600 3.3428 0.3374
5.0800 3.3561 0.3312
5.1000 3.3695 0.3273
5.1200 3.3828 0.3378
5.1400 3.3961 0.3251
5.1600 3.4094 0.3258
5.1800 3.4227 0.3339
5.2000 3.4360 0.3251
5.2200 3.4494 0.3265
5.2400 3.4627 0.3329
5.2600 3.4760 0.3247
5.2800 3.4893 0.3185
5.3000 3.5027 0.3292
5.3200 3.5160 0.3240
5.3400 3.5294 0.3167
5.3600 3.5428 0.3286
5.3800 3.5561 0.3205
5.4000 3.5695 0.3134
5.4200 3.5828 0.3263
5.4400 3.5961 0.3191
5.4600 3.6095 0.3147
5.4800 3.6228 0.3261
5.5000 3.6361 0.3165
5.5200 3.6494 0.3137
5.5400 3.6627 0.3279
5.5600 3.6761 0.3166
5.5800 3.6894 0.3086
5.6000 3.7027 0.3248
5.6200 3.7160 0.3185
5.6400 3.7294 0.3090
5.6600 3.7427 0.3207
5.6800 3.7561 0.3097
5.7000 3.7694 0.3006
5.7200 3.7828 0.3212
5.7400 3.7961 0.3111
5.7600 3.8094 0.2973
5.7800 3.8228 0.3267
5.8000 3.8361 0.3075
5.8200 3.8494 0.2945
5.8400 3.8628 0.3243
5.8600 3.8761 0.3065
5.8800 3.8894 0.2951
5.9000 3.9027 0.3245
5.9200 3.9161 0.3010
5.9400 3.9294 0.2949
5.9600 3.9427 0.3224
5.9800 3.9560 0.3053
6.0000 3.9693 0.2947
6.0200 3.9827 0.3249
6.0400 3.9960 0.2951
6.0600 4.0094 0.2968
6.0800 4.0227 0.3238
6.1000 4.0361 0.2949
6.1200 4.0495 0.2950
6.1400 4.0628 0.3214
6.1600 4.0761 0.2930
6.1800 4.0895 0.2960
6.2000 4.1028 0.3166
6.2200 4.1161 0.2940
6.2400 4.1294 0.2984
6.2600 4.1427 0.3179
6.2800 4.1561 0.2912
6.3000 4.1694 0.2885
6.3200 4.1827 0.3153
6.3400 4.1960 0.2921
6.3600 4.2093 0.2949
6.3800 4.2227 0.3110
6.4000 4.2360 0.2883
6.4200 4.2493 0.2964
6.4400 4.2627 0.3081
6.4600 4.2761 0.2884
6.4800 4.2894 0.2953
6.5000 4.3027 0.3071
6.5200 4.3161 0.2914
6.5400 4.3294 0.2922
6.5600 4.3428 0.3034
6.5800 4.3561 0.2923
6.6000 4.3694 0.2907
6.6200 4.3827 0.3037
6.6400 4.3961 0.2907
6.6600 4.4094 0.2862
6.6800 4.4227 0.3037
6.7000 4.4360 0.2905
6.7200 4.4493 0.2873
6.7400 4.4627 0.3002
6.7600 4.4760 0.2856
6.7800 4.4894 0.2843
6.8000 4.5027 0.2995
6.8200 4.5161 0.2833
6.8400 4.5294 0.2762
6.8600 4.5427 0.2947
6.8800 4.5560 0.2840
6.9000 4.5693 0.2781
6.9200 4.5827 0.2973
6.9400 4.5960 0.2788
6.9600 4.6094 0.2770
6.9800 4.6228 0.2919
7.0000 4.6361 0.2793
7.0200 4.6494 0.2745
7.0400 4.6627 0.2900
7.0600 4.6760 0.2785
7.0800 4.6893 0.2768
7.1000 4.7027 0.2922
7.1200 4.7160 0.2728
7.1400 4.7294 0.2772
7.1600 4.7427 0.2818
7.1800 4.7561 0.2698
7.2000 4.7695 0.2780
7.2200 4.7828 0.2808
7.2400 4.7961 0.2687
7.2600 4.8095 0.2771
7.2800 4.8228 0.2755
7.3000 4.8361 0.2689
7.3200 4.8493 0.2822
7.3400 4.8626 0.2741
7.3600 4.8760 0.2651
7.3800 4.8893 0.2756
7.4000 4.9027 0.2670
7.4200 4.9160 0.2679
7.4400 4.9294 0.2723
7.4600 4.9428 0.2639
7.4800 4.9561 0.2704
7.5000 4.9694 0.2716
7.5200 4.9828 0.2643
7.5400 4.9961 0.2724
7.5600 5.0095 0.2601
7.5800 5.0228 0.2582
7.6000 5.0361 0.2765
7.6200 5.0494 0.2615
7.6400 5.0628 0.2566
7.6600 5.0761 0.2765
7.6800 5.0894 0.2548
7.7000 5.1027 0.2603
7.7200 5.1160 0.2702
7.7400 5.1294 0.2462
7.7600 5.1427 0.2634
7.7800 5.1560 0.2648
7.8000 5.1693 0.2460
7.8200 5.1827 0.2651
7.8400 5.1960 0.2637
7.8600 5.2094 0.2449
7.8800 5.2227 0.2634
7.9000 5.2361 0.2582
7.9200 5.2495 0.2453
7.9400 5.2628 0.2642
7.9600 5.2761 0.2558
7.9800 5.2894 0.2482
8.0000 5.3028 0.2620
8.0200 5.3161 0.2494
8.0400 5.3294 0.2505
8.0600 5.3427 0.2586
8.0800 5.3561 0.2468
8.1000 5.3694 0.2516
8.1200 5.3827 0.2590
8.1400 5.3960 0.2483
8.1600 5.4093 0.2558
8.1800 5.4227 0.2512
8.2000 5.4360 0.2512
8.2200 5.4494 0.2539
8.2400 5.4627 0.2502
8.2600 5.4761 0.2512
8.2800 5.4895 0.2575
8.3000 5.5028 0.2447
8.3200 5.5161 0.2525
8.3400 5.5294 0.2578
8.3600 5.5428 0.2462
8.3800 5.5561 0.2491
8.4000 5.5694 0.2552
8.4200 5.5827 0.2475
8.4400 5.5960 0.2497
8.4600 5.6094 0.2550
8.4800 5.6227 0.2437
8.5000 5.6360 0.2516
8.5200 5.6493 0.2499
8.5400 5.6627 0.2396
8.5600 5.6761 0.2454
8.5800 5.6894 0.2471
8.6000 5.7027 0.2443
8.6200 5.7161 0.2456
8.6400 5.7294 0.2407
8.6600 5.7427 0.2380
8.6800 5.7561 0.2446
8.7000 5.7694 0.2421
8.7200 5.7828 0.2300
8.7400 5.7961 0.2422
8.7600 5.8094 0.2357
8.7800 5.8227 0.2360
8.8000 5.8360 0.2381
8.8200 5.8494 0.2324
8.8400 5.8627 0.2350
8.8600 5.8760 0.2359
8.8800 5.8893 0.2336
8.9000 5.9027 0.2321
8.9200 5.9160 0.2380
8.9400 5.9294 0.2343
8.9600 5.9427 0.2292
8.9800 5.9561 0.2360
9.0000 5.9695 0.2257
9.0200 5.9828 0.2287
9.0400 5.9961 0.2320
9.0600 6.0094 0.2322
9.0800 6.0228 0.2212
9.1000 6.0361 0.2243
9.1200 6.0494 0.2353
9.1400 6.0627 0.2198
9.1600 6.0760 0.2253
9.1800 6.0894 0.2339
9.2000 6.1027 0.2177
9.2200 6.1160 0.2251
9.2400 6.1293 0.2313
9.2600 6.1427 0.2169
9.2800 6.1560 0.2265
9.3000 6.1694 0.2280
9.3200 6.1827 0.2143
9.3400 6.1961 0.2273
9.3600 6.2095 0.2289
9.3800 6.2228 0.2099
9.4000 6.2361 0.2239
9.4200 6.2494 0.2263
9.4400 6.2628 0.2127
9.4600 6.2761 0.2233
9.4800 6.2894 0.2227
9.5000 6.3027 0.2112
9.5200 6.3160 0.2238
9.5400 6.3294 0.2232
9.5600 6.3427 0.2152
9.5800 6.3560 0.2214
9.6000 6.3694 0.2225
9.6200 6.3827 0.2096
9.6400 6.3961 0.2166
9.6600 6.4094 0.2214
9.6800 6.4227 0.2161
9.7000 6.4361 0.2158
9.7200 6.4494 0.2196
9.7400 6.4627 0.2141
9.7600 6.4760 0.2165
9.7800 6.4894 0.2183
9.8000 6.5027 0.2117
9.8200 6.5161 0.2132
9.8400 6.5294 0.2193
9.8600 6.5427 0.2137
9.8800 6.5561 0.2153
9.9000 6.5695 0.2203
9.9200 6.5828 0.2089
9.9400 6.5960 0.2091
9.9600 6.6094 0.2183
9.9800 6.6227 0.2059
10.0000 6.6360 0.2099
10.0200 6.6493 0.2146
10.0400 6.6627 0.2007
10.0600 6.6761 0.2115
10.0800 6.6894 0.2110
10.1000 6.7028 0.1976
10.1200 6.7161 0.2102
10.1400 6.7294 0.2092
10.1600 6.7428 0.2007
10.1800 6.7561 0.2068
10.2000 6.7694 0.2061
10.2200 6.7827 0.2045
10.2400 6.7961 0.2035
10.2600 6.8094 0.2070
10.2800 6.8227 0.1976
10.3000 6.8360 0.2031
10.3200 6.8493 0.2037
10.3400 6.8627 0.1969
10.3600 6.8760 0.2025
10.3800 6.8894 0.2010
10.4000 6.9027 0.1977
10.4200 6.9161 0.1999
10.4400 6.9295 0.1987
10.4600 6.9428 0.1976
10.4800 6.9561 0.1936
10.5000 6.9694 0.1998
10.5200 6.9828 0.1951
10.5400 6.9961 0.1940
10.5600 7.0094 0.2013
10.5800 7.0227 0.1962
10.6000 7.0360 0.1929
10.6200 7.0494 0.2047
10.6400 7.0627 0.1935
10.6600 7.0760 0.1888
10.6800 7.0893 0.2037
10.7000 7.1027 0.1872
10.7200 7.1161 0.1927
10.7400 7.1294 0.2017
10.7600 7.1427 0.1884
10.7800 7.1560 0.1890
10.8000 7.1694 0.2006
10.8200 7.1828 0.1841
10.8400 7.1961 0.1895
10.8600 7.2094 0.1989
10.8800 7.2228 0.1835
10.9000 7.2361 0.1940
10.9200 7.2494 0.1948
10.9400 7.2627 0.1833
10.9600 7.2761 0.1945
10.9800 7.2894 0.1914
11.0000 7.3027 0.1829
11.0200 7.3160 0.1922
11.0400 7.3293 0.1914
11.0600 7.3427 0.1816
11.0800 7.3560 0.1910
11.1000 7.3694 0.1878
11.1200 7.3827 0.1816
11.1400 7.3961 0.1885
11.1600 7.4095 0.1868
11.1800 7.4228 0.1797
11.2000 7.4361 0.1850
11.2200 7.4494 0.1818
11.2400 7.4628 0.1836
11.2600 7.4761 0.1849
11.2800 7.4894 0.1775
11.3000 7.5027 0.1812
11.3200 7.5161 0.1893
11.3400 7.5294 0.1776
11.3600 7.5427 0.1783
11.3800 7.5561 0.1812
11.4000 7.5694 0.1779
11.4200 7.5827 0.1796
11.4400 7.5960 0.1814
11.4600 7.6094 0.1754
11.4800 7.6227 0.1766
11.5000 7.6361 0.1792
11.5200 7.6494 0.1751
11.5400 7.6628 0.1760
11.5600 7.6761 0.1723
11.5800 7.6894 0.1757
11.6000 7.7028 0.1749
11.6200 7.7161 0.1707
11.6400 7.7294 0.1772
11.6600 7.7427 0.1740
11.6800 7.7560 0.1706
11.7000 7.7694 0.1752
11.7200 7.7827 0.1711
11.7400 7.7960 0.1720
11.7600 7.8093 0.1753
11.7800 7.8227 0.1693
11.8000 7.8360 0.1680
11.8200 7.8494 0.1759
11.8400 7.8627 0.1679
11.8600 7.8760 0.1721
11.8800 7.8894 0.1714
11.9000 7.9027 0.1645
11.9200 7.9161 0.1704
11.9400 7.9294 0.1659
11.9600 7.9427 0.1660
11.9800 7.9561 0.1671
12.0000 7.9694 0.1604
12.0200 7.9828 0.1646
12.0400 7.9961 0.1698
12.0600 8.0094 0.1603
12.0800 8.0227 0.1645
12.1000 8.0360 0.1668
12.1200 8.0493 0.1567
12.1400 8.0626 0.1660
12.1600 8.0759 0.1640
12.1800 8.0893 0.1592
12.2000 8.1026 0.1654
12.2200 8.1160 0.1594
12.2400 8.1294 0.1558
12.2600 8.1428 0.1653
12.2800 8.1562 0.1619
12.3000 8.1695 0.1564
12.3200 8.1828 0.1639
12.3400 8.1962 0.1553
12.3600 8.2094 0.1527
12.3800 8.2227 0.1698
12.4000 8.2360 0.1518
12.4200 8.2494 0.1568
12.4400 8.2627 0.1615
12.4600 8.2760 0.1475
12.4800 8.2893 0.1610
12.5000 8.3026 0.1586
12.5200 8.3160 0.1507
12.5400 8.3294 0.1579
12.5600 8.3427 0.1548
12.5800 8.3561 0.1486
12.6000 8.3694 0.1579
12.6200 8.3828 0.1491
12.6400 8.3961 0.1468
12.6600 8.4095 0.1618
12.6800 8.4228 0.1445
12.7000 8.4361 0.1494
12.7200 8.4494 0.1634
12.7400 8.4627 0.1408
12.7600 8.4760 0.1501
12.7800 8.4894 0.1580
12.8000 8.5027 0.1419
12.8200 8.5160 0.1509
12.8400 8.5293 0.1552
12.8600 8.5426 0.1401
12.8800 8.5560 0.1523
12.9000 8.5694 0.1439
12.9200 8.5827 0.1422
12.9400 8.5961 0.1568
12.9600 8.6094 0.1418
12.9800 8.6228 0.1397
13.0000 8.6361 0.1529
13.0200 8.6494 0.1405
13.0400 8.6628 0.1400
13.0600 8.6761 0.1452
13.0800 8.6894 0.1381
13.1000 8.7028 0.1434
13.1200 8.7161 0.1450
13.1400 8.7294 0.1412
13.1600 8.7427 0.1390
13.1800 8.7560 0.1461
13.2000 8.7693 0.1377
13.2200 8.7826 0.1412
13.2400 8.7960 0.1427
13.2600 8.8094 0.1378
13.2800 8.8227 0.1451
13.3000 8.8361 0.1393
13.3200 8.8495 0.1377
13.3400 8.8628 0.1391
13.3600 8.8761 0.1382
13.3800 8.8894 0.1367
13.4000 8.9028 0.1390
13.4200 8.9161 0.1366
13.4400 8.9294 0.1356
13.4600 8.9427 0.1372
13.4800 8.9560 0.1376
13.5000 8.9694 0.1359
13.5200 8.9827 0.1340
13.5400 8.9960 0.1375
13.5600 9.0094 0.1383
13.5800 9.0227 0.1342
13.6000 9.0360 0.1345
13.6200 9.0493 0.1345
13.6400 9.0627 0.1337
13.6600 9.0760 0.1360
13.6800 9.0894 0.1325
13.7000 9.1028 0.1301
13.7200 9.1161 0.1345
13.7400 9.1294 0.1284
13.7600 9.1428 0.1294
13.7800 9.1561 0.1335
13.8000 9.1695 0.1293
13.8200 9.1828 0.1312
13.8400 9.1961 0.1336
13.8600 9.2094 0.1274
13.8800 9.2227 0.1322
13.9000 9.2360 0.1315
13.9200 9.2493 0.1245
13.9400 9.2627 0.1347
13.9600 9.2760 0.1320
13.9800 9.2894 0.1184
14.0000 9.3027 0.1334
14.0200 9.3160 0.1291
14.0400 9.3294 0.1181
14.0600 9.3428 0.1294
14.0800 9.3561 0.1321
14.1000 9.3694 0.1176
14.1200 9.3827 0.1287
14.1400 9.3961 0.1239
14.1600 9.4094 0.1191
14.1800 9.4227 0.1306
14.2000 9.4361 0.1222
14.2200 9.4494 0.1201
14.2400 9.4627 0.1241
14.2600 9.4760 0.1178
14.2800 9.4893 0.1215
14.3000 9.5026 0.1226
14.3200 9.5160 0.1216
14.3400 9.5293 0.1209
14.3600 9.5426 0.1222
14.3800 9.5560 0.1188
14.4000 9.5694 0.1180
14.4200 9.5828 0.1171
14.4400 9.5962 0.1156
14.4600 9.6095 0.1170
14.4800 9.6228 0.1195
14.5000 9.6361 0.1130
14.5200 9.6494 0.1160
14.5400 9.6627 0.1192
14.5600 9.6760 0.1157
14.5800 9.6893 0.1140
14.6000 9.7026 0.1140
14.6200 9.7160 0.1145
14.6400 9.7293 0.1112
14.6600 9.7427 0.1130
14.6800 9.7561 0.1152
14.7000 9.7694 0.1091
14.7200 9.7828 0.1107
14.7400 9.7961 0.1139
14.7600 9.8094 0.1105
14.7800 9.8228 0.1154
14.8000 9.8361 0.1073
14.8200 9.8494 0.1071
14.8400 9.8628 0.1117
14.8600 9.8761 0.1100
14.8800 9.8894 0.1021
14.9000 9.9027 0.1142
14.9200 9.9160 0.1084
14.9400 9.9293 0.1016
14.9600 9.9427 0.1180
14.9800 9.9560 0.1041
15.0000 9.9694 0.0987
15.0200 9.9827 0.1158
15.0400 9.9960 0.1061
15.0600 10.0094 0.1017
15.0800 10.0227 0.1109
15.1000 10.0361 0.1002
15.1200 10.0494 0.1042
15.1400 10.0628 0.1096
15.1600 10.0761 0.1017
15.1800 10.0894 0.1074
15.2000 10.1028 0.1055
15.2200 10.1161 0.1050
15.2400 10.1295 0.1046
15.2600 10.1428 0.1031
15.2800 10.1561 0.1049
15.3000 10.1694 0.1059
15.3200 10.1828 0.1016
15.3400 10.1961 0.1029
15.3600 10.2093 0.1044
15.3800 10.2226 0.1010
15.4000 10.2360 0.1054
15.4200 10.2494 0.0979
15.4400 10.2627 0.1007
15.4600 10.2760 0.1030
15.4800 10.2894 0.0960
15.5000 10.3028 0.0987
15.5200 10.3161 0.1040
15.5400 10.3295 0.0955
15.5600 10.3428 0.0998
15.5800 10.3561 0.1028
15.6000 10.3695 0.0966
15.6200 10.3827 0.0968
15.6400 10.3960 0.1032
15.6600 10.4094 0.0983
15.6800 10.4227 0.0929
15.7000 10.4360 0.0982
15.7200 10.4494 0.0972
15.7400 10.4627 0.0955
15.7600 10.4760 0.1020
15.7800 10.4894 0.0934
15.8000 10.5027 0.0924
15.8200 10.5160 0.0960
15.8400 10.5294 0.0947
15.8600 10.5427 0.0904
15.8800 10.5561 0.0982
15.9000 10.5694 0.0897
15.9200 10.5827 0.0891
15.9400 10.5961 0.0947
15.9600 10.6095 0.0882
15.9800 10.6228 0.0922
16.0000 10.6361 0.0933
16.0200 10.6494 0.0832
16.0400 10.6627 0.0957
16.0600 10.6760 0.0873
16.0800 10.6893 0.0838
16.1000 10.7027 0.0921
16.1200 10.7160 0.0884
16.1400 10.7294 0.0808
16.1600 10.7427 0.0899
16.1800 10.7560 0.0827
16.2000 10.7694 0.0839
16.2200 10.7828 0.0931
16.2400 10.7961 0.0736
16.2600 10.8094 0.0840
16.2800 10.8227 0.0909
16.3000 10.8361 0.0807
16.3200 10.8495 0.0829
16.3400 10.8628 0.0853
16.3600 10.8761 0.0741
16.3800 10.8894 0.0883
16.4000 10.9027 0.0863
16.4200 10.9161 0.0760
16.4400 10.9294 0.0875
16.4600 10.9427 0.0806
16.4800 10.9560 0.0747
16.5000 10.9693 0.0886
16.5200 10.9827 0.0751
16.5400 10.9960 0.0749
16.5600 11.0094 0.0884
16.5800 11.0228 0.0724
16.6000 11.0361 0.0772
16.6200 11.0494 0.0858
16.6400 11.0628 0.0766
16.6600 11.0761 0.0765
16.6800 11.0895 0.0810
16.7000 11.1027 0.0763
16.7200 11.1160 0.0756
16.7400 11.1293 0.0793
16.7600 11.1427 0.0745
16.7800 11.1560 0.0761
16.8000 11.1694 0.0777
16.8200 11.1827 0.0717
16.8400 11.1961 0.0768
16.8600 11.2094 0.0709
16.8800 11.2228 0.0695
16.9000 11.2361 0.0741
16.9200 11.2494 0.0729
16.9400 11.2627 0.0704
16.9600 11.2761 0.0732
16.9800 11.2894 0.0720
17.0000 11.3027 0.0708
17.0200 11.3160 0.0722
17.0400 11.3294 0.0678
17.0600 11.3428 0.0696
17.0800 11.3561 0.0661
17.1000 11.3694 0.0666
17.1200 11.3828 0.0709
17.1400 11.3961 0.0644
17.1600 11.4094 0.0690
17.1800 11.4227 0.0724
17.2000 11.4360 0.0630
17.2200 11.4494 0.0641
17.2400 11.4627 0.0693
17.2600 11.4760 0.0574
17.2800 11.4894 0.0672
17.3000 11.5027 0.0719
17.3200 11.5161 0.0531
17.3400 11.5294 0.0674
17.3600 11.5427 0.0697
17.3800 11.5561 0.0524
17.4000 11.5694 0.0677
17.4200 11.5828 0.0654
17.4400 11.5961 0.0532
17.4600 11.6094 0.0707
17.4800 11.6228 0.0637
17.5000 11.6361 0.0526
17.5200 11.6494 0.0703
17.5400 11.6627 0.0604
17.5600 11.6760 0.0528
17.5800 11.6893 0.0698
17.6000 11.7027 0.0563
17.6200 11.7160 0.0553
17.6400 11.7294 0.0654
