Raw Data
Time Displacement Force
(s) (mm) (N)
0.0000 0.0000 0.3452
0.0200 0.0000 0.3613
0.0400 0.0008 0.3752
0.0600 0.0039 0.3888
0.0800 0.0094 0.3551
0.1000 0.0150 0.3420
0.1200 0.0209 0.3732
0.1400 0.0275 0.3681
0.1600 0.0349 0.3480
0.1800 0.0424 0.3597
0.2000 0.0496 0.3543
0.2200 0.0565 0.3523
0.2400 0.0632 0.3628
0.2600 0.0698 0.3641
0.2800 0.0765 0.3627
0.3000 0.0832 0.3678
0.3200 0.0899 0.3575
0.3400 0.0966 0.3665
0.3600 0.1033 0.3647
0.3800 0.1100 0.3682
0.4000 0.1166 0.3689
0.4200 0.1233 0.3656
0.4400 0.1300 0.3731
0.4600 0.1367 0.3749
0.4800 0.1433 0.3685
0.5000 0.1500 0.3754
0.5200 0.1567 0.3751
0.5400 0.1634 0.3719
0.5600 0.1700 0.3811
0.5800 0.1766 0.3860
0.6000 0.1833 0.3790
0.6200 0.1900 0.3813
0.6400 0.1967 0.3830
0.6600 0.2034 0.3835
0.6800 0.2100 0.3900
0.7000 0.2167 0.3840
0.7200 0.2233 0.3836
0.7400 0.2300 0.3899
0.7600 0.2366 0.3943
0.7800 0.2433 0.3896
0.8000 0.2499 0.3931
0.8200 0.2566 0.4037
0.8400 0.2633 0.3891
0.8600 0.2700 0.3940
0.8800 0.2767 0.4011
0.9000 0.2833 0.3916
0.9200 0.2899 0.4036
0.9400 0.2965 0.3996
0.9600 0.3032 0.3973
0.9800 0.3099 0.4056
1.0000 0.3166 0.4034
1.0200 0.3233 0.4024
1.0400 0.3300 0.4070
1.0600 0.3367 0.4049
1.0800 0.3433 0.4023
1.1000 0.3499 0.4063
1.1200 0.3566 0.4051
1.1400 0.3632 0.4091
1.1600 0.3700 0.4080
1.1800 0.3767 0.4082
1.2000 0.3834 0.4103
1.2200 0.3900 0.4066
1.2400 0.3967 0.4097
1.2600 0.4034 0.4069
1.2800 0.4100 0.4054
1.3000 0.4166 0.4136
1.3200 0.4233 0.4084
1.3400 0.4300 0.4047
1.3600 0.4367 0.4103
1.3800 0.4434 0.4116
1.4000 0.4501 0.4056
1.4200 0.4567 0.4115
1.4400 0.4633 0.4070
1.4600 0.4699 0.4070
1.4800 0.4765 0.4128
1.5000 0.4832 0.4097
1.5200 0.4899 0.4069
1.5400 0.4966 0.4138
1.5600 0.5033 0.4058
1.5800 0.5100 0.4050
1.6000 0.5167 0.4089
1.6200 0.5233 0.4063
1.6400 0.5299 0.4036
1.6600 0.5366 0.4089
1.6800 0.5432 0.4054
1.7000 0.5500 0.4077
1.7200 0.5567 0.4057
1.7400 0.5633 0.4052
1.7600 0.5700 0.4061
1.7800 0.5767 0.4046
1.8000 0.5834 0.3999
1.8200 0.5900 0.4091
1.8400 0.5966 0.4056
1.8600 0.6033 0.4066
1.8800 0.6100 0.4078
1.9000 0.6167 0.4039
1.9200 0.6234 0.4071
1.9400 0.6300 0.4029
1.9600 0.6367 0.4021
1.9800 0.6434 0.4044
2.0000 0.6500 0.4086
2.0200 0.6566 0.4055
2.0400 0.6632 0.4058
2.0600 0.6700 0.4030
2.0800 0.6767 0.4055
2.1000 0.6833 0.4072
2.1200 0.6900 0.4053
2.1400 0.6967 0.4059
2.1600 0.7034 0.4086
2.1800 0.7100 0.3994
2.2000 0.7166 0.4151
2.2200 0.7232 0.4016
2.2400 0.7300 0.4007
2.2600 0.7367 0.4101
2.2800 0.7433 0.4028
2.3000 0.7500 0.4031
2.3200 0.7567 0.4074
2.3400 0.7633 0.4055
2.3600 0.7700 0.4061
2.3800 0.7766 0.4041
2.4000 0.7832 0.4094
2.4200 0.7899 0.4077
2.4400 0.7966 0.4086
2.4600 0.8033 0.4090
2.4800 0.8100 0.4066
2.5000 0.8167 0.4047
2.5200 0.8234 0.4131
2.5400 0.8300 0.4025
2.5600 0.8366 0.4047
2.5800 0.8432 0.4205
2.6000 0.8500 0.3959
2.6200 0.8567 0.4057
2.6400 0.8634 0.4182
2.6600 0.8701 0.3968
2.6800 0.8767 0.4073
2.7000 0.8834 0.4209
2.7200 0.8900 0.3905
2.7400 0.8966 0.4117
2.7600 0.9033 0.4189
2.7800 0.9100 0.3897
2.8000 0.9167 0.4156
2.8200 0.9234 0.4198
2.8400 0.9300 0.3840
2.8600 0.9367 0.4168
2.8800 0.9434 0.4135
2.9000 0.9500 0.3901
2.9200 0.9566 0.4200
2.9400 0.9632 0.4097
2.9600 0.9699 0.3920
2.9800 0.9766 0.4231
3.0000 0.9833 0.4053
3.0200 0.9900 0.3943
3.0400 0.9967 0.4203
3.0600 1.0034 0.4037
3.0800 1.0099 0.3946
3.1000 1.0165 0.4244
3.1200 1.0232 0.4092
3.1400 1.0299 0.3959
3.1600 1.0366 0.4133
3.1800 1.0433 0.4029
3.2000 1.0500 0.4011
3.2200 1.0567 0.4140
3.2400 1.0633 0.4043
3.2600 1.0700 0.4006
3.2800 1.0766 0.4146
3.3000 1.0833 0.4041
3.3200 1.0900 0.4018
3.3400 1.0967 0.4120
3.3600 1.1033 0.4081
3.3800 1.1100 0.4042
3.4000 1.1168 0.4060
3.4200 1.1234 0.4025
3.4400 1.1300 0.4043
3.4600 1.1366 0.4052
3.4800 1.1433 0.4069
3.5000 1.1500 0.4051
3.5200 1.1567 0.4107
3.5400 1.1634 0.4077
3.5600 1.1700 0.4052
3.5800 1.1767 0.4076
3.6000 1.1834 0.4100
3.6200 1.1900 0.4032
3.6400 1.1966 0.4086
3.6600 1.2032 0.4145
3.6800 1.2100 0.4062
3.7000 1.2167 0.4075
3.7200 1.2233 0.4178
3.7400 1.2300 0.4060
3.7600 1.2367 0.4064
3.7800 1.2434 0.4171
3.8000 1.2500 0.3998
3.8200 1.2566 0.4121
3.8400 1.2632 0.4159
3.8600 1.2699 0.4013
3.8800 1.2766 0.4131
3.9000 1.2833 0.4168
3.9200 1.2900 0.4001
3.9400 1.2967 0.4141
3.9600 1.3034 0.4131
3.9800 1.3100 0.4051
4.0000 1.3166 0.4152
4.0200 1.3232 0.4111
4.0400 1.3299 0.4067
4.0600 1.3366 0.4186
4.0800 1.3433 0.4101
4.1000 1.3500 0.4092
4.1200 1.3567 0.4180
4.1400 1.3634 0.4122
4.1600 1.3700 0.4098
4.1800 1.3766 0.4179
4.2000 1.3833 0.4113
4.2200 1.3900 0.4119
4.2400 1.3967 0.4138
4.2600 1.4034 0.4080
4.2800 1.4100 0.4110
4.3000 1.4167 0.4173
4.3200 1.4234 0.4135
4.3400 1.4300 0.4090
4.3600 1.4366 0.4183
4.3800 1.4433 0.4132
4.4000 1.4500 0.4073
4.4200 1.4566 0.4134
4.4400 1.4633 0.4130
4.4600 1.4700 0.4075
4.4800 1.4767 0.4167
4.5000 1.4834 0.4129
4.5200 1.4900 0.4090
4.5400 1.4966 0.4174
4.5600 1.5032 0.4164
4.5800 1.5099 0.4059
4.6000 1.5166 0.4125
4.6200 1.5233 0.4134
4.6400 1.5300 0.4098
4.6600 1.5367 0.4054
4.6800 1.5434 0.4126
4.7000 1.5500 0.4008
4.7200 1.5566 0.4128
4.7400 1.5632 0.4122
4.7600 1.5700 0.4055
4.7800 1.5767 0.4133
4.8000 1.5834 0.4139
4.8200 1.5901 0.4026
4.8400 1.5967 0.4120
4.8600 1.6034 0.4126
4.8800 1.6100 0.4002
4.9000 1.6166 0.4146
4.9200 1.6232 0.4078
4.9400 1.6299 0.4049
4.9600 1.6366 0.4159
4.9800 1.6433 0.4039
5.0000 1.6500 0.4070
5.0200 1.6567 0.4106
5.0400 1.6634 0.4029
5.0600 1.6700 0.4068
5.0800 1.6766 0.4082
5.1000 1.6832 0.4054
5.1200 1.6899 0.4059
5.1400 1.6966 0.4092
5.1600 1.7033 0.4061
5.1800 1.7100 0.4095
5.2000 1.7167 0.4073
5.2200 1.7234 0.4074
5.2400 1.7300 0.4078
5.2600 1.7366 0.4065
5.2800 1.7432 0.4062
5.3000 1.7499 0.4100
5.3200 1.7566 0.4081
5.3400 1.7633 0.4044
5.3600 1.7700 0.4029
5.3800 1.7766 0.4080
5.4000 1.7833 0.3998
5.4200 1.7900 0.4061
5.4400 1.7966 0.4064
5.4600 1.8032 0.4047
5.4800 1.8099 0.4053
5.5000 1.8166 0.4027
5.5200 1.8233 0.4037
5.5400 1.8300 0.4072
5.5600 1.8367 0.4043
5.5800 1.8434 0.4011
5.6000 1.8500 0.4029
5.6200 1.8566 0.4044
5.6400 1.8632 0.4054
5.6600 1.8699 0.4040
5.6800 1.8767 0.4029
5.7000 1.8834 0.4024
5.7200 1.8900 0.4064
5.7400 1.8967 0.4046
5.7600 1.9034 0.4011
5.7800 1.9100 0.4043
5.8000 1.9166 0.4087
5.8200 1.9232 0.3981
5.8400 1.9299 0.4054
5.8600 1.9366 0.4089
5.8800 1.9433 0.3989
5.9000 1.9500 0.4023
5.9200 1.9566 0.4086
5.9400 1.9633 0.3954
5.9600 1.9700 0.4027
5.9800 1.9766 0.4093
6.0000 1.9832 0.3960
6.0200 1.9899 0.4039
6.0400 1.9966 0.4125
6.0600 2.0033 0.3923
6.0800 2.0100 0.4065
6.1000 2.0167 0.4062
6.1200 2.0234 0.3935
6.1400 2.0300 0.4037
6.1600 2.0366 0.4062
6.1800 2.0433 0.3959
6.2000 2.0499 0.4066
6.2200 2.0566 0.4032
6.2400 2.0633 0.3947
6.2600 2.0700 0.4076
6.2800 2.0767 0.4006
6.3000 2.0834 0.3946
6.3200 2.0900 0.4119
6.3400 2.0966 0.3983
6.3600 2.1032 0.4003
6.3800 2.1099 0.4139
6.4000 2.1167 0.3964
6.4200 2.1233 0.4022
6.4400 2.1300 0.4074
6.4600 2.1367 0.4019
6.4800 2.1434 0.4015
6.5000 2.1501 0.4051
6.5200 2.1567 0.4003
6.5400 2.1633 0.4055
6.5600 2.1699 0.4061
6.5800 2.1766 0.4020
6.6000 2.1833 0.4042
6.6200 2.1900 0.4041
6.6400 2.1967 0.4040
6.6600 2.2034 0.4033
6.6800 2.2100 0.3986
6.7000 2.2166 0.4048
6.7200 2.2232 0.4046
6.7400 2.2299 0.4044
6.7600 2.2366 0.4028
6.7800 2.2433 0.4014
6.8000 2.2500 0.3992
6.8200 2.2567 0.4038
6.8400 2.2634 0.3979
6.8600 2.2700 0.4058
6.8800 2.2766 0.4040
6.9000 2.2832 0.3978
6.9200 2.2899 0.4091
6.9400 2.2966 0.4034
6.9600 2.3033 0.3960
6.9800 2.3100 0.4072
7.0000 2.3167 0.4003
7.0200 2.3234 0.3946
7.0400 2.3300 0.4071
7.0600 2.3367 0.4031
7.0800 2.3433 0.3977
7.1000 2.3499 0.4060
7.1200 2.3566 0.4042
7.1400 2.3633 0.3960
7.1600 2.3700 0.4064
7.1800 2.3767 0.4024
7.2000 2.3834 0.3951
7.2200 2.3901 0.4021
7.2400 2.3966 0.4033
7.2600 2.4032 0.3968
7.2800 2.4099 0.4057
7.3000 2.4166 0.4026
7.3200 2.4233 0.3941
7.3400 2.4300 0.3970
7.3600 2.4367 0.4056
7.3800 2.4434 0.3989
7.4000 2.4500 0.3977
7.4200 2.4566 0.4040
7.4400 2.4632 0.3986
7.4600 2.4699 0.4017
7.4800 2.4766 0.4024
7.5000 2.4833 0.3948
7.5200 2.4900 0.3947
7.5400 2.4966 0.4021
7.5600 2.5033 0.3966
7.5800 2.5100 0.3951
7.6000 2.5166 0.4019
7.6200 2.5233 0.3976
7.6400 2.5299 0.4001
7.6600 2.5366 0.4005
7.6800 2.5433 0.3947
7.7000 2.5500 0.4062
7.7200 2.5567 0.3932
7.7400 2.5634 0.3955
7.7600 2.5701 0.4028
7.7800 2.5767 0.3969
7.8000 2.5833 0.3946
7.8200 2.5899 0.4037
7.8400 2.5966 0.3945
7.8600 2.6034 0.3957
7.8800 2.6100 0.3941
7.9000 2.6167 0.4002
7.9200 2.6234 0.4000
7.9400 2.6300 0.3955
7.9600 2.6366 0.3971
7.9800 2.6432 0.3956
8.0000 2.6499 0.4013
8.0200 2.6566 0.3992
8.0400 2.6633 0.3943
8.0600 2.6700 0.4049
8.0800 2.6767 0.4000
8.1000 2.6834 0.3928
8.1200 2.6900 0.3982
8.1400 2.6966 0.4001
8.1600 2.7032 0.3949
8.1800 2.7099 0.4022
8.2000 2.7166 0.4015
8.2200 2.7233 0.3885
8.2400 2.7300 0.4028
8.2600 2.7367 0.4005
8.2800 2.7434 0.3917
8.3000 2.7500 0.4023
8.3200 2.7567 0.3985
8.3400 2.7633 0.3914
8.3600 2.7699 0.4020
8.3800 2.7766 0.4005
8.4000 2.7833 0.3917
8.4200 2.7900 0.3999
8.4400 2.7967 0.3985
8.4600 2.8034 0.3909
8.4800 2.8100 0.3961
8.5000 2.8167 0.4005
8.5200 2.8233 0.3987
8.5400 2.8299 0.3949
8.5600 2.8366 0.3996
8.5800 2.8433 0.3961
8.6000 2.8500 0.3982
8.6200 2.8567 0.4003
8.6400 2.8634 0.3937
8.6600 2.8701 0.3965
8.6800 2.8767 0.4004
8.7000 2.8833 0.3960
8.7200 2.8899 0.3995
8.7400 2.8966 0.3987
8.7600 2.9033 0.3954
8.7800 2.9100 0.3960
8.8000 2.9167 0.4004
8.8200 2.9234 0.3970
8.8400 2.9300 0.3966
8.8600 2.9366 0.3972
8.8800 2.9432 0.3958
8.9000 2.9498 0.3991
8.9200 2.9565 0.3996
8.9400 2.9632 0.3960
8.9600 2.9699 0.3975
8.9800 2.9766 0.4026
9.0000 2.9833 0.3910
9.0200 2.9900 0.4003
9.0400 2.9966 0.3977
9.0600 3.0033 0.3956
9.0800 3.0099 0.3982
9.1000 3.0166 0.4005
9.1200 3.0233 0.3938
9.1400 3.0300 0.3971
9.1600 3.0367 0.4024
9.1800 3.0434 0.3964
9.2000 3.0501 0.3938
9.2200 3.0567 0.3969
9.2400 3.0633 0.3947
9.2600 3.0699 0.4024
9.2800 3.0766 0.3961
9.3000 3.0833 0.3917
9.3200 3.0900 0.4032
9.3400 3.0967 0.3950
9.3600 3.1034 0.3930
9.3800 3.1101 0.4036
9.4000 3.1167 0.3927
9.4200 3.1233 0.3966
9.4400 3.1299 0.3994
9.4600 3.1366 0.3965
9.4800 3.1433 0.3993
9.5000 3.1500 0.3955
9.5200 3.1567 0.4009
9.5400 3.1633 0.4015
9.5600 3.1700 0.3938
9.5800 3.1767 0.3984
9.6000 3.1833 0.4028
9.6200 3.1899 0.3853
9.6400 3.1966 0.4006
9.6600 3.2033 0.3995
9.6800 3.2100 0.3903
9.7000 3.2166 0.4006
9.7200 3.2233 0.3973
9.7400 3.2300 0.3885
9.7600 3.2366 0.4065
9.7800 3.2432 0.3910
9.8000 3.2499 0.3916
9.8200 3.2566 0.4081
9.8400 3.2633 0.3891
9.8600 3.2700 0.3880
9.8800 3.2767 0.4038
9.9000 3.2834 0.3894
9.9200 3.2901 0.3957
9.9400 3.2967 0.4008
9.9600 3.3033 0.3868
9.9800 3.3099 0.3980
10.0000 3.3166 0.4025
10.0200 3.3233 0.3874
10.0400 3.3301 0.3982
10.0600 3.3367 0.3966
10.0800 3.3434 0.3886
10.1000 3.3500 0.3962
10.1200 3.3567 0.3943
10.1400 3.3633 0.3924
10.1600 3.3699 0.3992
10.1800 3.3766 0.3893
10.2000 3.3833 0.3923
10.2200 3.3900 0.3978
10.2400 3.3966 0.3852
10.2600 3.4033 0.3994
10.2800 3.4100 0.3935
10.3000 3.4167 0.3831
10.3200 3.4233 0.3982
10.3400 3.4299 0.3964
10.3600 3.4365 0.3856
10.3800 3.4433 0.4005
10.4000 3.4500 0.3895
10.4200 3.4567 0.3789
10.4400 3.4633 0.3990
10.4600 3.4700 0.3910
10.4800 3.4767 0.3821
10.5000 3.4833 0.3999
10.5200 3.4899 0.3846
10.5400 3.4966 0.3912
10.5600 3.5033 0.3968
10.5800 3.5100 0.3813
10.6000 3.5167 0.3920
10.6200 3.5234 0.3986
10.6400 3.5301 0.3806
10.6600 3.5367 0.3897
10.6800 3.5433 0.3958
10.7000 3.5499 0.3873
10.7200 3.5566 0.3933
10.7400 3.5633 0.3903
10.7600 3.5700 0.3851
10.7800 3.5767 0.3939
10.8000 3.5834 0.3898
10.8200 3.5901 0.3892
10.8400 3.5967 0.3927
10.8600 3.6033 0.3884
10.8800 3.6099 0.3903
10.9000 3.6166 0.3860
10.9200 3.6233 0.3936
10.9400 3.6300 0.3912
10.9600 3.6367 0.3828
10.9800 3.6434 0.3949
11.0000 3.6500 0.3924
11.0200 3.6567 0.3825
11.0400 3.6633 0.3955
11.0600 3.6699 0.3920
11.0800 3.6766 0.3837
11.1000 3.6833 0.3967
11.1200 3.6900 0.3858
11.1400 3.6966 0.3825
11.1600 3.7033 0.4034
11.1800 3.7100 0.3852
11.2000 3.7166 0.3828
11.2200 3.7233 0.4002
11.2400 3.7299 0.3844
11.2600 3.7366 0.3830
11.2800 3.7433 0.3990
11.3000 3.7500 0.3822
11.3200 3.7567 0.3830
11.3400 3.7634 0.3997
11.3600 3.7701 0.3838
11.3800 3.7767 0.3827
11.4000 3.7833 0.3971
11.4200 3.7899 0.3845
11.4400 3.7966 0.3899
11.4600 3.8033 0.3961
11.4800 3.8100 0.3799
11.5000 3.8167 0.3926
11.5200 3.8234 0.3910
11.5400 3.8300 0.3801
11.5600 3.8367 0.3931
11.5800 3.8433 0.3929
11.6000 3.8499 0.3849
11.6200 3.8566 0.3854
11.6400 3.8633 0.3921
11.6600 3.8699 0.3887
11.6800 3.8766 0.3847
11.7000 3.8833 0.3927
11.7200 3.8900 0.3871
11.7400 3.8967 0.3850
11.7600 3.9033 0.3856
11.7800 3.9099 0.3945
11.8000 3.9165 0.3907
11.8200 3.9232 0.3874
11.8400 3.9299 0.3862
11.8600 3.9366 0.3802
11.8800 3.9433 0.3921
11.9000 3.9500 0.3919
11.9200 3.9567 0.3797
11.9400 3.9633 0.3928
11.9600 3.9699 0.3885
11.9800 3.9766 0.3817
12.0000 3.9833 0.3918
12.0200 3.9900 0.3886
12.0400 3.9967 0.3808
12.0600 4.0034 0.3940
12.0800 4.0101 0.3845
12.1000 4.0167 0.3774
12.1200 4.0233 0.3969
12.1400 4.0300 0.3804
12.1600 4.0366 0.3841
12.1800 4.0433 0.3903
12.2000 4.0500 0.3795
12.2200 4.0567 0.3851
12.2400 4.0634 0.3912
12.2600 4.0701 0.3802
12.2800 4.0767 0.3809
12.3000 4.0833 0.3888
12.3200 4.0899 0.3850
12.3400 4.0965 0.3837
12.3600 4.1032 0.3948
12.3800 4.1100 0.3801
12.4000 4.1167 0.3813
12.4200 4.1234 0.3906
12.4400 4.1300 0.3875
12.4600 4.1367 0.3812
12.4800 4.1433 0.3830
12.5000 4.1499 0.3858
12.5200 4.1565 0.3841
12.5400 4.1632 0.3844
12.5600 4.1700 0.3887
12.5800 4.1767 0.3809
12.6000 4.1833 0.3841
12.6200 4.1900 0.3862
12.6400 4.1967 0.3792
12.6600 4.2033 0.3910
12.6800 4.2100 0.3861
12.7000 4.2166 0.3788
12.7200 4.2233 0.3880
12.7400 4.2300 0.3900
12.7600 4.2367 0.3799
12.7800 4.2433 0.3878
12.8000 4.2501 0.3871
12.8200 4.2567 0.3788
12.8400 4.2633 0.3863
12.8600 4.2699 0.3878
12.8800 4.2766 0.3802
12.9000 4.2833 0.3873
12.9200 4.2900 0.3857
12.9400 4.2967 0.3779
12.9600 4.3034 0.3851
12.9800 4.3101 0.3904
13.0000 4.3167 0.3764
13.0200 4.3233 0.3844
13.0400 4.3299 0.3871
13.0600 4.3366 0.3842
13.0800 4.3433 0.3865
13.1000 4.3500 0.3849
13.1200 4.3567 0.3770
13.1400 4.3634 0.3880
13.1600 4.3700 0.3855
13.1800 4.3767 0.3769
13.2000 4.3833 0.3883
13.2200 4.3899 0.3827
13.2400 4.3965 0.3804
13.2600 4.4032 0.3905
13.2800 4.4099 0.3853
13.3000 4.4166 0.3756
13.3200 4.4233 0.3888
13.3400 4.4300 0.3799
13.3600 4.4367 0.3800
13.3800 4.4433 0.3894
13.4000 4.4499 0.3830
13.4200 4.4566 0.3799
13.4400 4.4633 0.3894
13.4600 4.4700 0.3832
13.4800 4.4767 0.3819
13.5000 4.4834 0.3854
13.5200 4.4901 0.3873
13.5400 4.4967 0.3808
13.5600 4.5033 0.3849
13.5800 4.5099 0.3831
13.6000 4.5166 0.3851
13.6200 4.5233 0.3828
13.6400 4.5300 0.3799
13.6600 4.5367 0.3818
13.6800 4.5433 0.3832
13.7000 4.5500 0.3829
13.7200 4.5567 0.3783
13.7400 4.5633 0.3814
13.7600 4.5699 0.3866
13.7800 4.5765 0.3805
13.8000 4.5832 0.3806
13.8200 4.5900 0.3838
13.8400 4.5967 0.3833
13.8600 4.6033 0.3793
13.8800 4.6100 0.3848
13.9000 4.6167 0.3807
13.9200 4.6233 0.3749
13.9400 4.6299 0.3885
13.9600 4.6366 0.3761
13.9800 4.6432 0.3815
14.0000 4.6499 0.3905
14.0200 4.6567 0.3716
14.0400 4.6633 0.3835
14.0600 4.6700 0.3901
14.0800 4.6767 0.3669
14.1000 4.6833 0.3879
14.1200 4.6899 0.3856
14.1400 4.6966 0.3709
14.1600 4.7033 0.3873
14.1800 4.7100 0.3814
14.2000 4.7167 0.3663
14.2200 4.7234 0.3880
14.2400 4.7301 0.3826
14.2600 4.7367 0.3702
14.2800 4.7434 0.3841
14.3000 4.7500 0.3786
14.3200 4.7566 0.3722
14.3400 4.7633 0.3891
14.3600 4.7700 0.3752
14.3800 4.7767 0.3770
14.4000 4.7834 0.3853
14.4200 4.7901 0.3757
14.4400 4.7968 0.3756
14.4600 4.8034 0.3827
14.4800 4.8100 0.3763
14.5000 4.8166 0.3787
14.5200 4.8232 0.3826
14.5400 4.8300 0.3746
14.5600 4.8366 0.3781
14.5800 4.8433 0.3772
14.6000 4.8500 0.3848
14.6200 4.8567 0.3758
14.6400 4.8633 0.3739
14.6600 4.8699 0.3841
14.6800 4.8765 0.3764
14.7000 4.8832 0.3726
14.7200 4.8899 0.3812
14.7400 4.8966 0.3761
14.7600 4.9033 0.3755
14.7800 4.9100 0.3827
14.8000 4.9167 0.3758
14.8200 4.9233 0.3722
14.8400 4.9300 0.3882
14.8600 4.9366 0.3726
14.8800 4.9433 0.3737
14.9000 4.9500 0.3835
14.9200 4.9567 0.3719
14.9400 4.9633 0.3775
14.9600 4.9700 0.3798
14.9800 4.9767 0.3663
15.0000 4.9834 0.3775
15.0200 4.9899 0.3820
15.0400 4.9966 0.3715
15.0600 5.0032 0.3808
15.0800 5.0100 0.3742
15.1000 5.0167 0.3675
15.1200 5.0234 0.3822
15.1400 5.0301 0.3706
15.1600 5.0367 0.3706
15.1800 5.0434 0.3811
15.2000 5.0500 0.3714
15.2200 5.0566 0.3716
15.2400 5.0633 0.3783
15.2600 5.0700 0.3699
15.2800 5.0767 0.3722
15.3000 5.0833 0.3781
15.3200 5.0900 0.3664
15.3400 5.0967 0.3720
15.3600 5.1034 0.3802
15.3800 5.1099 0.3707
15.4000 5.1165 0.3753
15.4200 5.1232 0.3745
15.4400 5.1299 0.3718
15.4600 5.1366 0.3799
15.4800 5.1433 0.3699
15.5000 5.1500 0.3733
15.5200 5.1566 0.3792
15.5400 5.1633 0.3700
15.5600 5.1699 0.3656
15.5800 5.1766 0.3812
15.6000 5.1832 0.3748
15.6200 5.1900 0.3675
15.6400 5.1967 0.3694
15.6600 5.2034 0.3747
15.6800 5.2101 0.3712
15.7000 5.2167 0.3709
15.7200 5.2234 0.3755
15.7400 5.2300 0.3711
15.7600 5.2366 0.3752
15.7800 5.2433 0.3735
15.8000 5.2500 0.3674
15.8200 5.2567 0.3750
15.8400 5.2634 0.3729
15.8600 5.2701 0.3633
15.8800 5.2767 0.3767
15.9000 5.2834 0.3736
15.9200 5.2900 0.3665
15.9400 5.2966 0.3759
15.9600 5.3032 0.3728
15.9800 5.3099 0.3637
16.0000 5.3166 0.3790
16.0200 5.3233 0.3710
16.0400 5.3300 0.3646
16.0600 5.3367 0.3772
16.0800 5.3433 0.3718
16.1000 5.3499 0.3638
16.1200 5.3566 0.3815
16.1400 5.3632 0.3683
16.1600 5.3700 0.3662
16.1800 5.3767 0.3719
16.2000 5.3833 0.3674
16.2200 5.3900 0.3689
16.2400 5.3967 0.3752
16.2600 5.4034 0.3598
16.2800 5.4100 0.3693
16.3000 5.4166 0.3768
16.3200 5.4233 0.3617
16.3400 5.4300 0.3743
16.3600 5.4367 0.3733
16.3800 5.4433 0.3642
16.4000 5.4500 0.3712
16.4200 5.4567 0.3690
16.4400 5.4634 0.3623
16.4600 5.4700 0.3724
16.4800 5.4766 0.3692
16.5000 5.4832 0.3684
16.5200 5.4899 0.3716
16.5400 5.4967 0.3712
16.5600 5.5034 0.3671
16.5800 5.5100 0.3706
16.6000 5.5167 0.3680
16.6200 5.5233 0.3655
16.6400 5.5299 0.3680
16.6600 5.5366 0.3721
16.6800 5.5432 0.3696
16.7000 5.5499 0.3674
16.7200 5.5567 0.3672
16.7400 5.5633 0.3681
16.7600 5.5700 0.3687
16.7800 5.5767 0.3723
16.8000 5.5833 0.3670
16.8200 5.5900 0.3653
16.8400 5.5966 0.3655
16.8600 5.6032 0.3667
16.8800 5.6099 0.3712
16.9000 5.6166 0.3726
16.9200 5.6233 0.3644
16.9400 5.6300 0.3663
16.9600 5.6367 0.3709
16.9800 5.6434 0.3662
17.0000 5.6500 0.3659
17.0200 5.6566 0.3731
17.0400 5.6632 0.3648
17.0600 5.6700 0.3643
17.0800 5.6767 0.3718
17.1000 5.6834 0.3662
17.1200 5.6900 0.3678
17.1400 5.6967 0.3711
17.1600 5.7034 0.3650
17.1800 5.7100 0.3657
17.2000 5.7166 0.3727
17.2200 5.7233 0.3677
17.2400 5.7300 0.3646
17.2600 5.7367 0.3668
17.2800 5.7434 0.3664
17.3000 5.7500 0.3621
17.3200 5.7567 0.3700
17.3400 5.7634 0.3653
17.3600 5.7700 0.3627
17.3800 5.7766 0.3716
17.4000 5.7832 0.3646
17.4200 5.7899 0.3652
17.4400 5.7966 0.3687
17.4600 5.8033 0.3612
17.4800 5.8100 0.3661
17.5000 5.8167 0.3664
17.5200 5.8234 0.3586
17.5400 5.8300 0.3673
17.5600 5.8366 0.3686
17.5800 5.8432 0.3598
17.6000 5.8499 0.3653
17.6200 5.8566 0.3691
17.6400 5.8633 0.3586
17.6600 5.8700 0.3664
17.6800 5.8767 0.3660
17.7000 5.8833 0.3574
17.7200 5.8900 0.3650
17.7400 5.8966 0.3702
17.7600 5.9033 0.3593
