Raw Data
Time Displacement Force
(s) (mm) (N)
0.0000 0.0000 0.2434
0.0200 0.0001 0.2477
0.0400 0.0022 0.3201
0.0600 0.0101 0.3233
0.0800 0.0220 0.2230
0.1000 0.0345 0.2401
0.1200 0.0472 0.2796
0.1400 0.0606 0.2309
0.1600 0.0747 0.2507
0.1800 0.0888 0.2563
0.2000 0.1027 0.2304
0.2200 0.1163 0.2509
0.2400 0.1296 0.2540
0.2600 0.1429 0.2372
0.2800 0.1563 0.2613
0.3000 0.1697 0.2542
0.3200 0.1830 0.2396
0.3400 0.1964 0.2600
0.3600 0.2097 0.2517
0.3800 0.2231 0.2528
0.4000 0.2364 0.2623
0.4200 0.2497 0.2452
0.4400 0.2630 0.2604
0.4600 0.2763 0.2544
0.4800 0.2897 0.2479
0.5000 0.3030 0.2634
0.5200 0.3164 0.2478
0.5400 0.3297 0.2545
0.5600 0.3430 0.2623
0.5800 0.3564 0.2428
0.6000 0.3697 0.2566
0.6200 0.3830 0.2608
0.6400 0.3964 0.2500
0.6600 0.4097 0.2478
0.6800 0.4231 0.2601
0.7000 0.4364 0.2433
0.7200 0.4498 0.2478
0.7400 0.4631 0.2571
0.7600 0.4765 0.2444
0.7800 0.4898 0.2542
0.8000 0.5031 0.2531
0.8200 0.5164 0.2439
0.8400 0.5297 0.2537
0.8600 0.5431 0.2496
0.8800 0.5563 0.2495
0.9000 0.5696 0.2533
0.9200 0.5830 0.2505
0.9400 0.5963 0.2450
0.9600 0.6097 0.2526
0.9800 0.6230 0.2462
1.0000 0.6364 0.2503
1.0200 0.6497 0.2556
1.0400 0.6631 0.2454
1.0600 0.6764 0.2468
1.0800 0.6897 0.2513
1.1000 0.7030 0.2490
1.1200 0.7164 0.2505
1.1400 0.7297 0.2470
1.1600 0.7431 0.2480
1.1800 0.7564 0.2506
1.2000 0.7697 0.2487
1.2200 0.7831 0.2508
1.2400 0.7964 0.2435
1.2600 0.8097 0.2502
1.2800 0.8230 0.2479
1.3000 0.8364 0.2495
1.3200 0.8497 0.2440
1.3400 0.8630 0.2466
1.3600 0.8764 0.2488
1.3800 0.8897 0.2444
1.4000 0.9031 0.2450
1.4200 0.9164 0.2440
1.4400 0.9297 0.2468
1.4600 0.9431 0.2414
1.4800 0.9564 0.2428
1.5000 0.9698 0.2463
1.5200 0.9831 0.2381
1.5400 0.9964 0.2419
1.5600 1.0097 0.2432
1.5800 1.0230 0.2410
1.6000 1.0364 0.2398
1.6200 1.0497 0.2385
1.6400 1.0630 0.2408
1.6600 1.0764 0.2402
1.6800 1.0897 0.2384
1.7000 1.1030 0.2404
1.7200 1.1164 0.2438
1.7400 1.1298 0.2357
1.7600 1.1431 0.2408
1.7800 1.1565 0.2436
1.8000 1.1698 0.2307
1.8200 1.1831 0.2420
1.8400 1.1965 0.2392
1.8600 1.2098 0.2268
1.8800 1.2231 0.2420
1.9000 1.2364 0.2413
1.9200 1.2497 0.2293
1.9400 1.2631 0.2424
1.9600 1.2764 0.2357
1.9800 1.2897 0.2285
2.0000 1.3030 0.2456
2.0200 1.3164 0.2332
2.0400 1.3297 0.2319
2.0600 1.3430 0.2442
2.0800 1.3564 0.2349
2.1000 1.3698 0.2312
2.1200 1.3831 0.2388
2.1400 1.3965 0.2315
2.1600 1.4098 0.2336
2.1800 1.4231 0.2362
2.2000 1.4364 0.2373
2.2200 1.4498 0.2303
2.2400 1.4630 0.2358
2.2600 1.4763 0.2341
2.2800 1.4897 0.2300
2.3000 1.5030 0.2327
2.3200 1.5163 0.2332
2.3400 1.5297 0.2276
2.3600 1.5430 0.2376
2.3800 1.5564 0.2286
2.4000 1.5698 0.2272
2.4200 1.5831 0.2378
2.4400 1.5964 0.2318
2.4600 1.6098 0.2293
2.4800 1.6231 0.2328
2.5000 1.6364 0.2322
2.5200 1.6497 0.2228
2.5400 1.6630 0.2343
2.5600 1.6764 0.2352
2.5800 1.6898 0.2213
2.6000 1.7031 0.2296
2.6200 1.7164 0.2319
2.6400 1.7297 0.2248
2.6600 1.7431 0.2328
2.6800 1.7564 0.2290
2.7000 1.7697 0.2232
2.7200 1.7830 0.2321
2.7400 1.7964 0.2309
2.7600 1.8097 0.2184
2.7800 1.8230 0.2314
2.8000 1.8363 0.2285
2.8200 1.8497 0.2189
2.8400 1.8631 0.2307
2.8600 1.8764 0.2269
2.8800 1.8898 0.2221
2.9000 1.9031 0.2306
2.9200 1.9164 0.2238
2.9400 1.9298 0.2258
2.9600 1.9431 0.2260
2.9800 1.9564 0.2182
3.0000 1.9698 0.2247
3.0200 1.9831 0.2290
3.0400 1.9964 0.2159
3.0600 2.0097 0.2223
3.0800 2.0230 0.2295
3.1000 2.0363 0.2213
3.1200 2.0497 0.2200
3.1400 2.0630 0.2253
3.1600 2.0764 0.2253
3.1800 2.0897 0.2217
3.2000 2.1031 0.2224
3.2200 2.1165 0.2241
3.2400 2.1298 0.2126
3.2600 2.1431 0.2180
3.2800 2.1565 0.2299
3.3000 2.1698 0.2116
3.3200 2.1831 0.2184
3.3400 2.1964 0.2253
3.3600 2.2097 0.2112
3.3800 2.2231 0.2194
3.4000 2.2364 0.2253
3.4200 2.2497 0.2042
3.4400 2.2630 0.2214
3.4600 2.2764 0.2201
3.4800 2.2897 0.2027
3.5000 2.3031 0.2261
3.5200 2.3164 0.2166
3.5400 2.3297 0.2010
3.5600 2.3431 0.2225
3.5800 2.3564 0.2170
3.6000 2.3698 0.2081
3.6200 2.3831 0.2191
3.6400 2.3965 0.2131
3.6600 2.4098 0.2065
3.6800 2.4231 0.2193
3.7000 2.4364 0.2118
3.7200 2.4497 0.2141
3.7400 2.4631 0.2203
3.7600 2.4764 0.2102
3.7800 2.4897 0.2135
3.8000 2.5030 0.2159
3.8200 2.5163 0.2111
3.8400 2.5297 0.2109
3.8600 2.5430 0.2133
3.8800 2.5564 0.2125
3.9000 2.5697 0.2127
3.9200 2.5831 0.2108
3.9400 2.5965 0.2082
3.9600 2.6098 0.2130
3.9800 2.6231 0.2088
4.0000 2.6364 0.2091
4.0200 2.6498 0.2090
4.0400 2.6631 0.2107
4.0600 2.6764 0.2126
4.0800 2.6897 0.2027
4.1000 2.7031 0.2124
4.1200 2.7164 0.2130
4.1400 2.7297 0.2041
4.1600 2.7430 0.2126
4.1800 2.7563 0.2099
4.2000 2.7697 0.2011
4.2200 2.7830 0.2148
4.2400 2.7963 0.2107
4.2600 2.8097 0.2002
4.2800 2.8231 0.2084
4.3000 2.8364 0.2128
4.3200 2.8498 0.1987
4.3400 2.8631 0.2111
4.3600 2.8764 0.2091
4.3800 2.8898 0.1995
4.4000 2.9031 0.2077
4.4200 2.9164 0.2069
4.4400 2.9297 0.2044
4.4600 2.9430 0.2065
4.4800 2.9564 0.2120
4.5000 2.9697 0.2012
4.5200 2.9830 0.2063
4.5400 2.9964 0.2098
4.5600 3.0097 0.1985
4.5800 3.0231 0.2044
4.6000 3.0364 0.2095
4.6200 3.0497 0.2012
4.6400 3.0630 0.2040
4.6600 3.0764 0.2095
4.6800 3.0897 0.1994
4.7000 3.1030 0.2051
4.7200 3.1164 0.2113
4.7400 3.1298 0.1942
4.7600 3.1431 0.2071
4.7800 3.1564 0.2052
4.8000 3.1698 0.1963
4.8200 3.1831 0.2055
4.8400 3.1964 0.2021
4.8600 3.2097 0.1985
4.8800 3.2230 0.2082
4.9000 3.2363 0.2015
4.9200 3.2497 0.1969
4.9400 3.2630 0.2069
4.9600 3.2763 0.1986
4.9800 3.2897 0.1956
5.0000 3.3031 0.2079
5.0200 3.3165 0.1963
5.0400 3.3298 0.1985
5.0600 3.3431 0.2087
5.0800 3.3565 0.1947
5.1000 3.3698 0.1934
5.1200 3.3831 0.2056
5.1400 3.3964 0.1971
5.1600 3.4097 0.1964
5.1800 3.4230 0.2060
5.2000 3.4364 0.1964
5.2200 3.4497 0.1953
5.2400 3.4630 0.2047
5.2600 3.4763 0.1910
5.2800 3.4897 0.1940
5.3000 3.5030 0.2020
5.3200 3.5164 0.1878
5.3400 3.5297 0.1940
5.3600 3.5431 0.2006
5.3800 3.5565 0.1820
5.4000 3.5698 0.1971
5.4200 3.5831 0.1976
5.4400 3.5965 0.1832
5.4600 3.6098 0.1982
5.4800 3.6231 0.1931
5.5000 3.6364 0.1872
5.5200 3.6497 0.1959
5.5400 3.6630 0.1940
5.5600 3.6764 0.1843
5.5800 3.6897 0.1953
5.6000 3.7030 0.1927
5.6200 3.7163 0.1880
5.6400 3.7297 0.1925
5.6600 3.7431 0.1896
5.6800 3.7564 0.1930
5.7000 3.7697 0.1910
5.7200 3.7831 0.1850
5.7400 3.7964 0.1949
5.7600 3.8098 0.1911
5.7800 3.8231 0.1854
5.8000 3.8364 0.1970
5.8200 3.8498 0.1925
5.8400 3.8631 0.1814
5.8600 3.8764 0.1965
5.8800 3.8897 0.1935
5.9000 3.9031 0.1882
5.9200 3.9164 0.1968
5.9400 3.9297 0.1922
5.9600 3.9430 0.1882
5.9800 3.9563 0.1982
6.0000 3.9697 0.1918
6.0200 3.9831 0.1852
6.0400 3.9964 0.1924
6.0600 4.0097 0.1926
6.0800 4.0231 0.1870
6.1000 4.0365 0.1915
6.1200 4.0498 0.1966
6.1400 4.0631 0.1902
6.1600 4.0764 0.1900
6.1800 4.0898 0.1910
6.2000 4.1031 0.1905
6.2200 4.1164 0.1874
6.2400 4.1297 0.1916
6.2600 4.1430 0.1937
6.2800 4.1564 0.1823
6.3000 4.1697 0.1908
6.3200 4.1830 0.1883
6.3400 4.1964 0.1846
6.3600 4.2097 0.1917
6.3800 4.2230 0.1830
6.4000 4.2364 0.1843
6.4200 4.2497 0.1905
6.4400 4.2631 0.1848
6.4600 4.2764 0.1827
6.4800 4.2898 0.1916
6.5000 4.3031 0.1766
6.5200 4.3164 0.1799
6.5400 4.3298 0.1881
6.5600 4.3431 0.1768
6.5800 4.3564 0.1816
6.6000 4.3697 0.1828
6.6200 4.3831 0.1798
6.6400 4.3964 0.1809
6.6600 4.4097 0.1759
6.6800 4.4230 0.1828
6.7000 4.4363 0.1794
6.7200 4.4497 0.1810
6.7400 4.4630 0.1797
6.7600 4.4764 0.1765
6.7800 4.4897 0.1785
6.8000 4.5031 0.1799
6.8200 4.5164 0.1756
6.8400 4.5298 0.1779
6.8600 4.5431 0.1734
6.8800 4.5564 0.1716
6.9000 4.5698 0.1803
6.9200 4.5831 0.1745
6.9400 4.5964 0.1747
6.9600 4.6097 0.1802
6.9800 4.6231 0.1734
7.0000 4.6364 0.1741
7.0200 4.6497 0.1785
7.0400 4.6630 0.1716
7.0600 4.6763 0.1708
7.0800 4.6896 0.1772
7.1000 4.7030 0.1700
7.1200 4.7163 0.1708
7.1400 4.7297 0.1770
7.1600 4.7431 0.1723
7.1800 4.7565 0.1686
7.2000 4.7698 0.1708
7.2200 4.7832 0.1715
7.2400 4.7965 0.1707
7.2600 4.8098 0.1709
7.2800 4.8232 0.1698
7.3000 4.8364 0.1690
7.3200 4.8497 0.1724
7.3400 4.8630 0.1715
7.3600 4.8763 0.1675
7.3800 4.8897 0.1745
7.4000 4.9030 0.1681
7.4200 4.9164 0.1678
7.4400 4.9297 0.1719
7.4600 4.9431 0.1630
7.4800 4.9564 0.1679
7.5000 4.9697 0.1678
7.5200 4.9831 0.1658
7.5400 4.9965 0.1677
7.5600 5.0098 0.1683
7.5800 5.0231 0.1664
7.6000 5.0364 0.1686
7.6200 5.0498 0.1702
7.6400 5.0631 0.1664
7.6600 5.0764 0.1671
7.6800 5.0897 0.1722
7.7000 5.1030 0.1673
7.7200 5.1164 0.1672
7.7400 5.1297 0.1665
7.7600 5.1430 0.1676
7.7800 5.1563 0.1641
7.8000 5.1697 0.1683
7.8200 5.1830 0.1671
7.8400 5.1964 0.1616
7.8600 5.2097 0.1685
7.8800 5.2231 0.1742
7.9000 5.2364 0.1641
7.9200 5.2498 0.1687
7.9400 5.2631 0.1699
7.9600 5.2764 0.1598
7.9800 5.2898 0.1689
8.0000 5.3031 0.1738
8.0200 5.3164 0.1593
8.0400 5.3297 0.1658
8.0600 5.3431 0.1738
8.0800 5.3564 0.1581
8.1000 5.3697 0.1707
8.1200 5.3830 0.1740
8.1400 5.3963 0.1509
8.1600 5.4097 0.1749
8.1800 5.4230 0.1748
8.2000 5.4364 0.1540
8.2200 5.4497 0.1752
8.2400 5.4630 0.1721
8.2600 5.4764 0.1493
8.2800 5.4898 0.1736
8.3000 5.5031 0.1713
8.3200 5.5164 0.1526
8.3400 5.5298 0.1745
8.3600 5.5431 0.1652
8.3800 5.5564 0.1547
8.4000 5.5697 0.1738
8.4200 5.5830 0.1659
8.4400 5.5964 0.1532
8.4600 5.6097 0.1736
8.4800 5.6230 0.1635
8.5000 5.6363 0.1582
8.5200 5.6497 0.1715
8.5400 5.6630 0.1568
8.5600 5.6764 0.1529
8.5800 5.6897 0.1687
8.6000 5.7031 0.1578
8.6200 5.7164 0.1542
8.6400 5.7298 0.1666
8.6600 5.7431 0.1568
8.6800 5.7564 0.1519
8.7000 5.7698 0.1735
8.7200 5.7831 0.1605
8.7400 5.7965 0.1517
8.7600 5.8098 0.1632
8.7800 5.8231 0.1624
8.8000 5.8364 0.1564
8.8200 5.8497 0.1605
8.8400 5.8630 0.1564
8.8600 5.8763 0.1562
8.8800 5.8897 0.1601
8.9000 5.9030 0.1548
8.9200 5.9164 0.1571
8.9400 5.9297 0.1599
8.9600 5.9431 0.1567
8.9800 5.9565 0.1580
9.0000 5.9698 0.1557
9.0200 5.9831 0.1641
9.0400 5.9964 0.1577
9.0600 6.0098 0.1538
9.0800 6.0231 0.1594
9.1000 6.0364 0.1561
9.1200 6.0497 0.1551
9.1400 6.0630 0.1588
9.1600 6.0764 0.1587
9.1800 6.0897 0.1508
9.2000 6.1030 0.1579
9.2200 6.1163 0.1592
9.2400 6.1296 0.1588
9.2600 6.1430 0.1604
9.2800 6.1564 0.1532
9.3000 6.1697 0.1555
9.3200 6.1831 0.1582
9.3400 6.1964 0.1497
9.3600 6.2098 0.1544
9.3800 6.2231 0.1553
9.4000 6.2364 0.1529
9.4200 6.2498 0.1552
9.4400 6.2631 0.1521
9.4600 6.2764 0.1567
9.4800 6.2897 0.1592
9.5000 6.3030 0.1544
9.5200 6.3163 0.1532
9.5400 6.3297 0.1560
9.5600 6.3430 0.1538
9.5800 6.3563 0.1504
9.6000 6.3697 0.1534
9.6200 6.3831 0.1535
9.6400 6.3964 0.1506
9.6600 6.4098 0.1498
9.6800 6.4231 0.1553
9.7000 6.4364 0.1518
9.7200 6.4498 0.1503
9.7400 6.4631 0.1528
9.7600 6.4764 0.1466
9.7800 6.4897 0.1529
9.8000 6.5031 0.1498
9.8200 6.5164 0.1443
9.8400 6.5298 0.1507
9.8600 6.5431 0.1502
9.8800 6.5564 0.1435
9.9000 6.5698 0.1466
9.9200 6.5831 0.1496
9.9400 6.5964 0.1451
9.9600 6.6097 0.1432
9.9800 6.6230 0.1508
10.0000 6.6364 0.1419
10.0200 6.6497 0.1435
10.0400 6.6630 0.1476
10.0600 6.6764 0.1426
10.0800 6.6898 0.1466
10.1000 6.7031 0.1478
10.1200 6.7164 0.1430
10.1400 6.7297 0.1433
10.1600 6.7431 0.1460
10.1800 6.7565 0.1422
10.2000 6.7698 0.1412
10.2200 6.7831 0.1495
10.2400 6.7964 0.1390
10.2600 6.8098 0.1432
10.2800 6.8231 0.1469
10.3000 6.8364 0.1418
10.3200 6.8497 0.1473
10.3400 6.8630 0.1458
10.3600 6.8764 0.1441
10.3800 6.8897 0.1434
10.4000 6.9030 0.1460
10.4200 6.9164 0.1424
10.4400 6.9298 0.1425
10.4600 6.9431 0.1414
10.4800 6.9564 0.1395
10.5000 6.9698 0.1502
10.5200 6.9831 0.1386
10.5400 6.9964 0.1424
10.5600 7.0097 0.1449
10.5800 7.0230 0.1341
10.6000 7.0364 0.1451
10.6200 7.0497 0.1397
10.6400 7.0630 0.1347
10.6600 7.0764 0.1452
10.6800 7.0897 0.1408
10.7000 7.1031 0.1356
10.7200 7.1164 0.1431
10.7400 7.1297 0.1368
10.7600 7.1430 0.1383
10.7800 7.1564 0.1447
10.8000 7.1698 0.1355
10.8200 7.1831 0.1376
10.8400 7.1964 0.1419
10.8600 7.2098 0.1364
10.8800 7.2231 0.1431
10.9000 7.2365 0.1407
10.9200 7.2498 0.1376
10.9400 7.2631 0.1376
10.9600 7.2764 0.1456
10.9800 7.2897 0.1353
11.0000 7.3030 0.1358
11.0200 7.3163 0.1438
11.0400 7.3297 0.1346
11.0600 7.3430 0.1380
11.0800 7.3564 0.1408
11.1000 7.3697 0.1318
11.1200 7.3831 0.1351
11.1400 7.3964 0.1366
11.1600 7.4098 0.1332
11.1800 7.4231 0.1366
11.2000 7.4364 0.1359
11.2200 7.4497 0.1388
11.2400 7.4631 0.1393
11.2600 7.4764 0.1355
11.2800 7.4898 0.1390
11.3000 7.5031 0.1352
11.3200 7.5164 0.1296
11.3400 7.5297 0.1404
11.3600 7.5431 0.1347
11.3800 7.5564 0.1299
11.4000 7.5697 0.1404
11.4200 7.5830 0.1300
11.4400 7.5964 0.1298
11.4600 7.6097 0.1418
11.4800 7.6230 0.1288
11.5000 7.6364 0.1373
11.5200 7.6498 0.1382
11.5400 7.6631 0.1265
11.5600 7.6764 0.1363
11.5800 7.6897 0.1350
11.6000 7.7031 0.1239
11.6200 7.7165 0.1349
11.6400 7.7298 0.1336
11.6600 7.7431 0.1219
11.6800 7.7564 0.1426
11.7000 7.7697 0.1289
11.7200 7.7830 0.1205
11.7400 7.7964 0.1408
11.7600 7.8097 0.1249
11.7800 7.8230 0.1313
11.8000 7.8364 0.1322
11.8200 7.8497 0.1287
11.8400 7.8630 0.1250
11.8600 7.8764 0.1321
11.8800 7.8897 0.1297
11.9000 7.9030 0.1208
11.9200 7.9164 0.1309
11.9400 7.9297 0.1329
11.9600 7.9431 0.1230
11.9800 7.9564 0.1270
12.0000 7.9698 0.1304
12.0200 7.9831 0.1205
12.0400 7.9964 0.1283
12.0600 8.0098 0.1263
12.0800 8.0231 0.1162
12.1000 8.0364 0.1301
12.1200 8.0497 0.1308
12.1400 8.0630 0.1172
12.1600 8.0763 0.1346
12.1800 8.0896 0.1313
12.2000 8.1030 0.1193
12.2200 8.1164 0.1279
12.2400 8.1298 0.1303
12.2600 8.1432 0.1155
12.2800 8.1565 0.1291
12.3000 8.1698 0.1299
12.3200 8.1831 0.1183
12.3400 8.1965 0.1278
12.3600 8.2098 0.1307
12.3800 8.2231 0.1144
12.4000 8.2364 0.1285
12.4200 8.2497 0.1294
12.4400 8.2630 0.1166
12.4600 8.2763 0.1244
12.4800 8.2896 0.1302
12.5000 8.3030 0.1146
12.5200 8.3164 0.1263
12.5400 8.3297 0.1362
12.5600 8.3430 0.1151
12.5800 8.3564 0.1248
12.6000 8.3698 0.1280
12.6200 8.3831 0.1117
12.6400 8.3965 0.1219
12.6600 8.4098 0.1232
12.6800 8.4231 0.1103
12.7000 8.4365 0.1281
12.7200 8.4498 0.1213
12.7400 8.4630 0.1097
12.7600 8.4764 0.1274
12.7800 8.4897 0.1209
12.8000 8.5030 0.1080
12.8200 8.5163 0.1262
12.8400 8.5297 0.1198
12.8600 8.5430 0.1140
12.8800 8.5564 0.1293
12.9000 8.5697 0.1118
12.9200 8.5831 0.1145
12.9400 8.5964 0.1338
12.9600 8.6098 0.1091
12.9800 8.6231 0.1158
13.0000 8.6364 0.1263
13.0200 8.6498 0.1154
13.0400 8.6631 0.1160
13.0600 8.6765 0.1223
13.0800 8.6898 0.1113
13.1000 8.7031 0.1176
13.1200 8.7164 0.1194
13.1400 8.7298 0.1179
13.1600 8.7431 0.1216
13.1800 8.7564 0.1194
13.2000 8.7697 0.1154
13.2200 8.7830 0.1175
13.2400 8.7964 0.1156
13.2600 8.8097 0.1138
13.2800 8.8231 0.1155
13.3000 8.8364 0.1162
13.3200 8.8498 0.1185
13.3400 8.8631 0.1117
13.3600 8.8764 0.1146
13.3800 8.8898 0.1172
13.4000 8.9031 0.1152
13.4200 8.9164 0.1156
13.4400 8.9298 0.1186
13.4600 8.9431 0.1138
13.4800 8.9564 0.1138
13.5000 8.9697 0.1185
13.5200 8.9831 0.1090
13.5400 8.9964 0.1174
13.5600 9.0097 0.1174
13.5800 9.0230 0.1018
13.6000 9.0364 0.1213
13.6200 9.0497 0.1179
13.6400 9.0630 0.1056
13.6600 9.0763 0.1169
13.6800 9.0897 0.1168
13.7000 9.1031 0.1021
13.7200 9.1164 0.1217
13.7400 9.1298 0.1173
13.7600 9.1431 0.1063
13.7800 9.1565 0.1160
13.8000 9.1698 0.1108
13.8200 9.1831 0.1067
13.8400 9.1964 0.1201
13.8600 9.2097 0.1135
13.8800 9.2230 0.1097
13.9000 9.2364 0.1164
13.9200 9.2497 0.1092
13.9400 9.2630 0.1041
13.9600 9.2764 0.1136
13.9800 9.2897 0.1073
14.0000 9.3030 0.1068
14.0200 9.3164 0.1105
14.0400 9.3297 0.1103
14.0600 9.3431 0.1061
14.0800 9.3564 0.1069
14.1000 9.3698 0.1111
14.1200 9.3831 0.1083
14.1400 9.3964 0.1077
14.1600 9.4098 0.1089
14.1800 9.4231 0.1079
14.2000 9.4364 0.1034
14.2200 9.4497 0.1069
14.2400 9.4631 0.1078
14.2600 9.4764 0.1023
14.2800 9.4896 0.1090
14.3000 9.5030 0.1076
14.3200 9.5163 0.0995
14.3400 9.5297 0.1086
14.3600 9.5430 0.1083
14.3800 9.5564 0.0985
14.4000 9.5698 0.1048
14.4200 9.5831 0.1050
14.4400 9.5965 0.0980
14.4600 9.6098 0.1118
14.4800 9.6231 0.1003
14.5000 9.6365 0.0958
14.5200 9.6498 0.1092
14.5400 9.6630 0.1079
14.5600 9.6763 0.0968
14.5800 9.6896 0.1104
14.6000 9.7030 0.0980
14.6200 9.7163 0.0988
14.6400 9.7297 0.1118
14.6600 9.7430 0.0978
14.6800 9.7564 0.1019
14.7000 9.7697 0.1050
14.7200 9.7831 0.0964
14.7400 9.7964 0.1104
14.7600 9.8098 0.1036
14.7800 9.8232 0.0961
14.8000 9.8365 0.1089
14.8200 9.8498 0.1017
14.8400 9.8631 0.1058
14.8600 9.8764 0.1105
14.8800 9.8898 0.1007
14.9000 9.9031 0.1045
14.9200 9.9164 0.1063
14.9400 9.9297 0.0971
14.9600 9.9431 0.1062
14.9800 9.9564 0.1056
15.0000 9.9697 0.0973
15.0200 9.9830 0.1074
15.0400 9.9964 0.1067
15.0600 10.0097 0.0943
15.0800 10.0230 0.1063
15.1000 10.0364 0.1043
15.1200 10.0498 0.0994
15.1400 10.0631 0.1045
15.1600 10.0765 0.0989
15.1800 10.0898 0.0989
15.2000 10.1031 0.1080
15.2200 10.1164 0.0973
15.2400 10.1298 0.0950
15.2600 10.1431 0.1049
15.2800 10.1564 0.0998
15.3000 10.1697 0.0907
15.3200 10.1831 0.1052
15.3400 10.1964 0.0987
15.3600 10.2097 0.0933
15.3800 10.2230 0.1034
15.4000 10.2363 0.0987
15.4200 10.2497 0.0968
15.4400 10.2630 0.0981
15.4600 10.2764 0.0979
15.4800 10.2897 0.0961
15.5000 10.3031 0.0992
15.5200 10.3165 0.0959
15.5400 10.3298 0.0941
15.5600 10.3431 0.0970
15.5800 10.3565 0.0949
15.6000 10.3698 0.0949
15.6200 10.3831 0.1009
15.6400 10.3964 0.0958
15.6600 10.4097 0.0997
15.6800 10.4231 0.1013
15.7000 10.4364 0.0912
15.7200 10.4497 0.0963
15.7400 10.4630 0.1043
15.7600 10.4764 0.0908
15.7800 10.4897 0.0953
15.8000 10.5030 0.1016
15.8200 10.5163 0.0885
15.8400 10.5297 0.0976
15.8600 10.5431 0.1014
15.8800 10.5564 0.0901
15.9000 10.5697 0.0925
15.9200 10.5831 0.0994
15.9400 10.5965 0.0924
15.9600 10.6098 0.0906
15.9800 10.6231 0.1029
16.0000 10.6364 0.0913
16.0200 10.6497 0.0897
16.0400 10.6631 0.0999
16.0600 10.6764 0.0909
16.0800 10.6897 0.0879
16.1000 10.7030 0.0985
16.1200 10.7163 0.0905
16.1400 10.7297 0.0875
16.1600 10.7430 0.0956
16.1800 10.7564 0.0918
16.2000 10.7698 0.0919
16.2200 10.7831 0.0945
16.2400 10.7965 0.0870
16.2600 10.8098 0.0883
16.2800 10.8231 0.0952
16.3000 10.8364 0.0910
16.3200 10.8498 0.0898
16.3400 10.8631 0.0907
16.3600 10.8764 0.0947
16.3800 10.8897 0.0899
16.4000 10.9031 0.0900
16.4200 10.9164 0.0916
16.4400 10.9297 0.0876
16.4600 10.9430 0.0890
16.4800 10.9563 0.0932
16.5000 10.9697 0.0831
16.5200 10.9830 0.0923
16.5400 10.9964 0.0921
16.5600 11.0097 0.0823
16.5800 11.0231 0.0923
16.6000 11.0365 0.0907
16.6200 11.0498 0.0787
16.6400 11.0631 0.0947
16.6600 11.0764 0.0909
16.6800 11.0898 0.0774
16.7000 11.1031 0.0926
16.7200 11.1163 0.0880
16.7400 11.1296 0.0798
16.7600 11.1430 0.0929
16.7800 11.1564 0.0862
16.8000 11.1697 0.0811
16.8200 11.1830 0.0868
16.8400 11.1964 0.0889
16.8600 11.2098 0.0807
16.8800 11.2231 0.0846
16.9000 11.2364 0.0896
16.9200 11.2498 0.0775
16.9400 11.2631 0.0854
16.9600 11.2764 0.0865
16.9800 11.2897 0.0749
17.0000 11.3030 0.0909
17.0200 11.3164 0.0875
17.0400 11.3298 0.0735
17.0600 11.3431 0.0881
17.0800 11.3564 0.0885
17.1000 11.3698 0.0699
17.1200 11.3831 0.0878
17.1400 11.3964 0.0886
17.1600 11.4097 0.0720
17.1800 11.4230 0.0877
17.2000 11.4364 0.0826
17.2200 11.4497 0.0683
17.2400 11.4630 0.0877
17.2600 11.4764 0.0837
17.2800 11.4897 0.0695
17.3000 11.5031 0.0866
17.3200 11.5164 0.0769
17.3400 11.5298 0.0653
17.3600 11.5431 0.0891
17.3800 11.5564 0.0817
17.4000 11.5698 0.0672
17.4200 11.5831 0.0870
17.4400 11.5964 0.0780
17.4600 11.6097 0.0715
17.4800 11.6231 0.0851
17.5000 11.6364 0.0767
17.5200 11.6497 0.0694
17.5400 11.6630 0.0903
17.5600 11.6763 0.0735
17.5800 11.6897 0.0720
17.6000 11.7030 0.0914
17.6200 11.7164 0.0686
17.6400 11.7297 0.0742
