Raw Data
Time Displacement Force
(s) (mm) (N)
0.0000 0.0000 0.4232
0.0200 0.0001 0.4347
0.0400 0.0022 0.5029
0.0600 0.0100 0.5037
0.0800 0.0219 0.4181
0.1000 0.0344 0.4332
0.1200 0.0471 0.4597
0.1400 0.0605 0.4250
0.1600 0.0746 0.4304
0.1800 0.0888 0.4385
0.2000 0.1027 0.4211
0.2200 0.1163 0.4336
0.2400 0.1296 0.4415
0.2600 0.1429 0.4268
0.2800 0.1562 0.4420
0.3000 0.1696 0.4437
0.3200 0.1830 0.4282
0.3400 0.1964 0.4446
0.3600 0.2097 0.4431
0.3800 0.2230 0.4338
0.4000 0.2364 0.4402
0.4200 0.2497 0.4432
0.4400 0.2630 0.4409
0.4600 0.2763 0.4354
0.4800 0.2897 0.4471
0.5000 0.3030 0.4362
0.5200 0.3163 0.4325
0.5400 0.3296 0.4470
0.5600 0.3430 0.4380
0.5800 0.3563 0.4298
0.6000 0.3697 0.4440
0.6200 0.3830 0.4374
0.6400 0.3964 0.4303
0.6600 0.4098 0.4416
0.6800 0.4231 0.4358
0.7000 0.4364 0.4241
0.7200 0.4497 0.4426
0.7400 0.4631 0.4298
0.7600 0.4764 0.4282
0.7800 0.4898 0.4380
0.8000 0.5031 0.4253
0.8200 0.5164 0.4267
0.8400 0.5297 0.4347
0.8600 0.5430 0.4211
0.8800 0.5563 0.4264
0.9000 0.5696 0.4357
0.9200 0.5829 0.4190
0.9400 0.5963 0.4250
0.9600 0.6097 0.4335
0.9800 0.6230 0.4193
1.0000 0.6363 0.4258
1.0200 0.6497 0.4336
1.0400 0.6631 0.4129
1.0600 0.6764 0.4255
1.0800 0.6897 0.4299
1.1000 0.7031 0.4132
1.1200 0.7164 0.4200
1.1400 0.7297 0.4254
1.1600 0.7430 0.4139
1.1800 0.7563 0.4206
1.2000 0.7697 0.4238
1.2200 0.7830 0.4112
1.2400 0.7964 0.4158
1.2600 0.8097 0.4257
1.2800 0.8230 0.4121
1.3000 0.8363 0.4206
1.3200 0.8497 0.4204
1.3400 0.8630 0.4133
1.3600 0.8763 0.4180
1.3800 0.8897 0.4194
1.4000 0.9031 0.4146
1.4200 0.9164 0.4167
1.4400 0.9297 0.4190
1.4600 0.9431 0.4141
1.4800 0.9564 0.4146
1.5000 0.9698 0.4179
1.5200 0.9831 0.4071
1.5400 0.9964 0.4127
1.5600 1.0097 0.4161
1.5800 1.0230 0.4064
1.6000 1.0363 0.4084
1.6200 1.0496 0.4194
1.6400 1.0630 0.4061
1.6600 1.0763 0.4031
1.6800 1.0897 0.4164
1.7000 1.1030 0.4034
1.7200 1.1164 0.4072
1.7400 1.1297 0.4108
1.7600 1.1431 0.3978
1.7800 1.1565 0.4055
1.8000 1.1698 0.4126
1.8200 1.1831 0.3939
1.8400 1.1964 0.4053
1.8600 1.2098 0.4101
1.8800 1.2231 0.3950
1.9000 1.2364 0.4019
1.9200 1.2497 0.4098
1.9400 1.2631 0.3969
1.9600 1.2764 0.4039
1.9800 1.2897 0.4041
2.0000 1.3030 0.3986
2.0200 1.3163 0.4053
2.0400 1.3297 0.4052
2.0600 1.3430 0.3929
2.0800 1.3564 0.4000
2.1000 1.3697 0.4056
2.1200 1.3831 0.3922
2.1400 1.3965 0.3962
2.1600 1.4098 0.4003
2.1800 1.4231 0.3943
2.2000 1.4364 0.3937
2.2200 1.4497 0.3960
2.2400 1.4630 0.3932
2.2600 1.4763 0.3932
2.2800 1.4896 0.3957
2.3000 1.5030 0.3906
2.3200 1.5163 0.3883
2.3400 1.5296 0.3942
2.3600 1.5430 0.3942
2.3800 1.5564 0.3822
2.4000 1.5697 0.3882
2.4200 1.5831 0.3941
2.4400 1.5964 0.3792
2.4600 1.6097 0.3893
2.4800 1.6231 0.3879
2.5000 1.6364 0.3819
2.5200 1.6497 0.3859
2.5400 1.6630 0.3871
2.5600 1.6764 0.3800
2.5800 1.6898 0.3827
2.6000 1.7031 0.3822
2.6200 1.7164 0.3821
2.6400 1.7297 0.3836
2.6600 1.7431 0.3790
2.6800 1.7564 0.3778
2.7000 1.7697 0.3828
2.7200 1.7830 0.3777
2.7400 1.7963 0.3761
2.7600 1.8097 0.3793
2.7800 1.8230 0.3787
2.8000 1.8363 0.3756
2.8200 1.8497 0.3826
2.8400 1.8630 0.3731
2.8600 1.8764 0.3724
2.8800 1.8897 0.3779
2.9000 1.9031 0.3760
2.9200 1.9164 0.3705
2.9400 1.9298 0.3743
2.9600 1.9431 0.3771
2.9800 1.9564 0.3691
3.0000 1.9697 0.3705
3.0200 1.9831 0.3761
3.0400 1.9964 0.3712
3.0600 2.0097 0.3714
3.0800 2.0230 0.3720
3.1000 2.0363 0.3678
3.1200 2.0497 0.3697
3.1400 2.0630 0.3714
3.1600 2.0763 0.3650
3.1800 2.0897 0.3677
3.2000 2.1031 0.3667
3.2200 2.1164 0.3590
3.2400 2.1298 0.3730
3.2600 2.1431 0.3648
3.2800 2.1564 0.3559
3.3000 2.1698 0.3675
3.3200 2.1831 0.3596
3.3400 2.1964 0.3550
3.3600 2.2097 0.3693
3.3800 2.2230 0.3579
3.4000 2.2364 0.3564
3.4200 2.2497 0.3595
3.4400 2.2630 0.3576
3.4600 2.2763 0.3550
3.4800 2.2897 0.3571
3.5000 2.3030 0.3560
3.5200 2.3164 0.3539
3.5400 2.3297 0.3518
3.5600 2.3431 0.3518
3.5800 2.3564 0.3501
3.6000 2.3697 0.3449
3.6200 2.3831 0.3528
3.6400 2.3964 0.3508
3.6600 2.4098 0.3445
3.6800 2.4231 0.3469
3.7000 2.4364 0.3508
3.7200 2.4497 0.3448
3.7400 2.4630 0.3499
3.7600 2.4764 0.3488
3.7800 2.4897 0.3404
3.8000 2.5030 0.3516
3.8200 2.5163 0.3437
3.8400 2.5297 0.3378
3.8600 2.5430 0.3540
3.8800 2.5563 0.3401
3.9000 2.5697 0.3406
3.9200 2.5831 0.3476
3.9400 2.5965 0.3401
3.9600 2.6098 0.3356
3.9800 2.6231 0.3460
4.0000 2.6364 0.3350
4.0200 2.6498 0.3321
4.0400 2.6631 0.3475
4.0600 2.6764 0.3338
4.0800 2.6897 0.3296
4.1000 2.7030 0.3436
4.1200 2.7164 0.3358
4.1400 2.7297 0.3315
4.1600 2.7430 0.3404
4.1800 2.7563 0.3386
4.2000 2.7697 0.3310
4.2200 2.7830 0.3374
4.2400 2.7963 0.3378
4.2600 2.8097 0.3365
4.2800 2.8231 0.3364
4.3000 2.8364 0.3338
4.3200 2.8498 0.3285
4.3400 2.8631 0.3435
4.3600 2.8764 0.3335
4.3800 2.8898 0.3286
4.4000 2.9031 0.3398
4.4200 2.9164 0.3317
4.4400 2.9297 0.3327
4.4600 2.9430 0.3365
4.4800 2.9564 0.3303
4.5000 2.9697 0.3272
4.5200 2.9830 0.3368
4.5400 2.9963 0.3308
4.5600 3.0097 0.3295
4.5800 3.0230 0.3322
4.6000 3.0363 0.3278
4.6200 3.0497 0.3272
4.6400 3.0630 0.3351
4.6600 3.0764 0.3284
4.6800 3.0897 0.3268
4.7000 3.1030 0.3289
4.7200 3.1164 0.3264
4.7400 3.1298 0.3253
4.7600 3.1431 0.3311
4.7800 3.1564 0.3214
4.8000 3.1697 0.3249
4.8200 3.1831 0.3231
4.8400 3.1964 0.3228
4.8600 3.2097 0.3196
4.8800 3.2230 0.3246
4.9000 3.2363 0.3206
4.9200 3.2496 0.3140
4.9400 3.2630 0.3224
4.9600 3.2763 0.3207
4.9800 3.2897 0.3138
5.0000 3.3031 0.3172
5.0200 3.3165 0.3193
5.0400 3.3298 0.3120
5.0600 3.3431 0.3152
5.0800 3.3564 0.3144
5.1000 3.3698 0.3067
5.1200 3.3831 0.3189
5.1400 3.3964 0.3136
5.1600 3.4097 0.3078
5.1800 3.4230 0.3244
5.2000 3.4364 0.3174
5.2200 3.4497 0.3072
5.2400 3.4630 0.3137
5.2600 3.4763 0.3185
5.2800 3.4897 0.3070
5.3000 3.5030 0.3134
5.3200 3.5163 0.3143
5.3400 3.5297 0.3034
5.3600 3.5431 0.3141
5.3800 3.5564 0.3079
5.4000 3.5698 0.3000
5.4200 3.5831 0.3178
5.4400 3.5964 0.3103
5.4600 3.6098 0.2955
5.4800 3.6231 0.3108
5.5000 3.6364 0.3080
5.5200 3.6497 0.2923
5.5400 3.6630 0.3103
5.5600 3.6764 0.2991
5.5800 3.6897 0.2908
5.6000 3.7030 0.3091
5.6200 3.7163 0.3001
5.6400 3.7297 0.2919
5.6600 3.7430 0.3045
5.6800 3.7564 0.2921
5.7000 3.7697 0.2931
5.7200 3.7830 0.3036
5.7400 3.7964 0.2904
5.7600 3.8097 0.2962
5.7800 3.8231 0.2997
5.8000 3.8364 0.2917
5.8200 3.8498 0.2966
5.8400 3.8631 0.2989
5.8600 3.8764 0.2936
5.8800 3.8897 0.2976
5.9000 3.9031 0.2949
5.9200 3.9164 0.2922
5.9400 3.9297 0.2979
5.9600 3.9430 0.2912
5.9800 3.9563 0.2952
6.0000 3.9697 0.2923
6.0200 3.9830 0.2906
6.0400 3.9964 0.2984
6.0600 4.0097 0.2897
6.0800 4.0231 0.2906
6.1000 4.0364 0.2957
6.1200 4.0498 0.2902
6.1400 4.0631 0.2890
6.1600 4.0764 0.2934
6.1800 4.0898 0.2848
6.2000 4.1031 0.2908
6.2200 4.1164 0.2927
6.2400 4.1297 0.2819
6.2600 4.1430 0.2920
6.2800 4.1564 0.2885
6.3000 4.1697 0.2812
6.3200 4.1830 0.2933
6.3400 4.1963 0.2890
6.3600 4.2097 0.2848
6.3800 4.2230 0.2903
6.4000 4.2363 0.2859
6.4200 4.2497 0.2834
6.4400 4.2630 0.2893
6.4600 4.2764 0.2794
6.4800 4.2897 0.2825
6.5000 4.3031 0.2895
6.5200 4.3164 0.2779
6.5400 4.3298 0.2780
6.5600 4.3431 0.2874
6.5800 4.3564 0.2765
6.6000 4.3697 0.2834
6.6200 4.3830 0.2845
6.6400 4.3964 0.2725
6.6600 4.4097 0.2775
6.6800 4.4230 0.2711
6.7000 4.4363 0.2768
6.7200 4.4497 0.2772
6.7400 4.4630 0.2737
6.7600 4.4763 0.2751
6.7800 4.4897 0.2738
6.8000 4.5030 0.2695
6.8200 4.5164 0.2758
6.8400 4.5297 0.2736
6.8600 4.5430 0.2649
6.8800 4.5564 0.2724
6.9000 4.5697 0.2732
6.9200 4.5831 0.2645
6.9400 4.5964 0.2700
6.9600 4.6097 0.2664
6.9800 4.6230 0.2666
7.0000 4.6364 0.2687
7.0200 4.6497 0.2650
7.0400 4.6630 0.2672
7.0600 4.6763 0.2679
7.0800 4.6896 0.2705
7.1000 4.7030 0.2617
7.1200 4.7163 0.2671
7.1400 4.7296 0.2652
7.1600 4.7430 0.2630
7.1800 4.7564 0.2618
7.2000 4.7698 0.2626
7.2200 4.7831 0.2594
7.2400 4.7965 0.2609
7.2600 4.8098 0.2630
7.2800 4.8231 0.2606
7.3000 4.8364 0.2581
7.3200 4.8497 0.2612
7.3400 4.8630 0.2609
7.3600 4.8763 0.2560
7.3800 4.8897 0.2565
7.4000 4.9030 0.2576
7.4200 4.9163 0.2504
7.4400 4.9297 0.2589
7.4600 4.9431 0.2518
7.4800 4.9564 0.2502
7.5000 4.9697 0.2578
7.5200 4.9831 0.2499
7.5400 4.9964 0.2488
7.5600 5.0098 0.2540
7.5800 5.0231 0.2463
7.6000 5.0364 0.2488
7.6200 5.0498 0.2575
7.6400 5.0631 0.2504
7.6600 5.0764 0.2448
7.6800 5.0897 0.2568
7.7000 5.1030 0.2490
7.7200 5.1164 0.2472
7.7400 5.1297 0.2543
7.7600 5.1430 0.2452
7.7800 5.1563 0.2517
7.8000 5.1696 0.2555
7.8200 5.1830 0.2423
7.8400 5.1964 0.2495
7.8600 5.2097 0.2553
7.8800 5.2230 0.2495
7.9000 5.2364 0.2475
7.9200 5.2498 0.2549
7.9400 5.2631 0.2452
7.9600 5.2764 0.2497
7.9800 5.2897 0.2567
8.0000 5.3031 0.2447
8.0200 5.3164 0.2514
8.0400 5.3297 0.2518
8.0600 5.3430 0.2468
8.0800 5.3564 0.2501
8.1000 5.3697 0.2536
8.1200 5.3830 0.2463
8.1400 5.3963 0.2493
8.1600 5.4096 0.2532
8.1800 5.4230 0.2463
8.2000 5.4363 0.2449
8.2200 5.4497 0.2491
8.2400 5.4630 0.2454
8.2600 5.4764 0.2452
8.2800 5.4898 0.2458
8.3000 5.5031 0.2419
8.3200 5.5164 0.2443
8.3400 5.5297 0.2471
8.3600 5.5431 0.2417
8.3800 5.5564 0.2418
8.4000 5.5697 0.2436
8.4200 5.5830 0.2423
8.4400 5.5964 0.2384
8.4600 5.6097 0.2464
8.4800 5.6230 0.2401
8.5000 5.6363 0.2362
8.5200 5.6497 0.2404
8.5400 5.6630 0.2363
8.5600 5.6764 0.2302
8.5800 5.6897 0.2414
8.6000 5.7030 0.2375
8.6200 5.7164 0.2260
8.6400 5.7298 0.2398
8.6600 5.7431 0.2298
8.6800 5.7564 0.2272
8.7000 5.7697 0.2409
8.7200 5.7831 0.2275
8.7400 5.7964 0.2281
8.7600 5.8097 0.2344
8.7800 5.8230 0.2293
8.8000 5.8364 0.2263
8.8200 5.8497 0.2359
8.8400 5.8630 0.2271
8.8600 5.8763 0.2268
8.8800 5.8896 0.2353
8.9000 5.9030 0.2273
8.9200 5.9164 0.2288
8.9400 5.9297 0.2332
8.9600 5.9431 0.2231
8.9800 5.9564 0.2267
9.0000 5.9698 0.2287
9.0200 5.9831 0.2214
9.0400 5.9964 0.2270
9.0600 6.0097 0.2282
9.0800 6.0231 0.2199
9.1000 6.0364 0.2253
9.1200 6.0497 0.2272
9.1400 6.0630 0.2196
9.1600 6.0763 0.2268
9.1800 6.0897 0.2218
9.2000 6.1030 0.2234
9.2200 6.1163 0.2278
9.2400 6.1296 0.2172
9.2600 6.1430 0.2254
9.2800 6.1563 0.2250
9.3000 6.1697 0.2166
9.3200 6.1830 0.2246
9.3400 6.1964 0.2242
9.3600 6.2098 0.2159
9.3800 6.2231 0.2228
9.4000 6.2364 0.2224
9.4200 6.2497 0.2172
9.4400 6.2631 0.2274
9.4600 6.2764 0.2186
9.4800 6.2897 0.2125
9.5000 6.3030 0.2305
9.5200 6.3163 0.2111
9.5400 6.3297 0.2144
9.5600 6.3430 0.2262
9.5800 6.3563 0.2083
9.6000 6.3697 0.2179
9.6200 6.3830 0.2208
9.6400 6.3964 0.2071
9.6600 6.4097 0.2189
9.6800 6.4231 0.2192
9.7000 6.4364 0.2085
9.7200 6.4498 0.2208
9.7400 6.4631 0.2139
9.7600 6.4764 0.2044
9.7800 6.4897 0.2185
9.8000 6.5031 0.2075
9.8200 6.5164 0.2110
9.8400 6.5297 0.2161
9.8600 6.5431 0.2043
9.8800 6.5564 0.2062
9.9000 6.5698 0.2115
9.9200 6.5831 0.2011
9.9400 6.5964 0.2106
9.9600 6.6097 0.2087
9.9800 6.6230 0.1983
10.0000 6.6363 0.2059
10.0200 6.6497 0.2041
10.0400 6.6630 0.1976
10.0600 6.6764 0.2072
10.0800 6.6897 0.2041
10.1000 6.7031 0.1980
10.1200 6.7164 0.2034
10.1400 6.7297 0.2012
10.1600 6.7431 0.2025
10.1800 6.7564 0.1990
10.2000 6.7697 0.2015
10.2200 6.7830 0.2013
10.2400 6.7964 0.1969
10.2600 6.8097 0.1998
10.2800 6.8230 0.2027
10.3000 6.8363 0.1949
10.3200 6.8497 0.1978
10.3400 6.8630 0.1988
10.3600 6.8764 0.1909
10.3800 6.8897 0.1971
10.4000 6.9030 0.2016
10.4200 6.9164 0.1931
10.4400 6.9298 0.2013
10.4600 6.9431 0.1944
10.4800 6.9564 0.1937
10.5000 6.9697 0.1955
10.5200 6.9831 0.1906
10.5400 6.9964 0.1933
10.5600 7.0097 0.1952
10.5800 7.0230 0.1918
10.6000 7.0363 0.1921
10.6200 7.0497 0.1945
10.6400 7.0630 0.1915
10.6600 7.0763 0.1904
10.6800 7.0897 0.1992
10.7000 7.1030 0.1857
10.7200 7.1164 0.1926
10.7400 7.1297 0.1925
10.7600 7.1430 0.1862
10.7800 7.1564 0.1925
10.8000 7.1697 0.1893
10.8200 7.1831 0.1875
10.8400 7.1964 0.1889
10.8600 7.2097 0.1915
10.8800 7.2231 0.1883
10.9000 7.2365 0.1884
10.9200 7.2498 0.1828
10.9400 7.2630 0.1891
10.9600 7.2764 0.1925
10.9800 7.2897 0.1825
11.0000 7.3030 0.1873
11.0200 7.3163 0.1915
11.0400 7.3296 0.1824
11.0600 7.3430 0.1863
11.0800 7.3563 0.1864
11.1000 7.3697 0.1779
11.1200 7.3830 0.1844
11.1400 7.3964 0.1886
11.1600 7.4098 0.1807
11.1800 7.4231 0.1826
11.2000 7.4364 0.1859
11.2200 7.4497 0.1795
11.2400 7.4631 0.1844
11.2600 7.4764 0.1822
11.2800 7.4897 0.1773
11.3000 7.5031 0.1846
11.3200 7.5164 0.1782
11.3400 7.5297 0.1764
11.3600 7.5431 0.1821
11.3800 7.5564 0.1781
11.4000 7.5697 0.1756
11.4200 7.5830 0.1758
11.4400 7.5964 0.1772
11.4600 7.6097 0.1741
11.4800 7.6230 0.1733
11.5000 7.6364 0.1763
11.5200 7.6498 0.1679
11.5400 7.6631 0.1712
11.5600 7.6764 0.1748
11.5800 7.6897 0.1678
11.6000 7.7031 0.1718
11.6200 7.7164 0.1736
11.6400 7.7297 0.1660
11.6600 7.7430 0.1653
11.6800 7.7563 0.1761
11.7000 7.7697 0.1658
11.7200 7.7830 0.1665
11.7400 7.7963 0.1743
11.7600 7.8096 0.1624
11.7800 7.8230 0.1615
11.8000 7.8363 0.1756
11.8200 7.8497 0.1634
11.8400 7.8630 0.1629
11.8600 7.8763 0.1753
11.8800 7.8897 0.1627
11.9000 7.9030 0.1580
11.9200 7.9164 0.1754
11.9400 7.9297 0.1598
11.9600 7.9431 0.1637
11.9800 7.9564 0.1703
12.0000 7.9697 0.1585
12.0200 7.9831 0.1602
12.0400 7.9964 0.1752
12.0600 8.0098 0.1587
12.0800 8.0231 0.1586
12.1000 8.0364 0.1748
12.1200 8.0496 0.1578
12.1400 8.0630 0.1620
12.1600 8.0763 0.1721
12.1800 8.0896 0.1527
12.2000 8.1030 0.1648
12.2200 8.1164 0.1732
12.2400 8.1298 0.1469
12.2600 8.1431 0.1623
12.2800 8.1565 0.1739
12.3000 8.1698 0.1494
12.3200 8.1831 0.1620
12.3400 8.1965 0.1662
12.3600 8.2098 0.1491
12.3800 8.2230 0.1628
12.4000 8.2363 0.1669
12.4200 8.2497 0.1509
12.4400 8.2630 0.1634
12.4600 8.2763 0.1658
12.4800 8.2896 0.1463
12.5000 8.3030 0.1677
12.5200 8.3163 0.1598
12.5400 8.3297 0.1459
12.5600 8.3430 0.1600
12.5800 8.3564 0.1608
12.6000 8.3697 0.1479
12.6200 8.3831 0.1589
12.6400 8.3965 0.1573
12.6600 8.4098 0.1508
12.6800 8.4231 0.1583
12.7000 8.4365 0.1540
12.7200 8.4498 0.1485
12.7400 8.4630 0.1580
12.7600 8.4763 0.1516
12.7800 8.4897 0.1487
12.8000 8.5030 0.1534
12.8200 8.5163 0.1519
12.8400 8.5296 0.1457
12.8600 8.5430 0.1526
12.8800 8.5564 0.1500
12.9000 8.5697 0.1442
12.9200 8.5830 0.1521
12.9400 8.5964 0.1533
12.9600 8.6097 0.1418
12.9800 8.6231 0.1505
13.0000 8.6364 0.1501
13.0200 8.6497 0.1429
13.0400 8.6631 0.1492
13.0600 8.6765 0.1475
13.0800 8.6898 0.1440
13.1000 8.7031 0.1476
13.1200 8.7164 0.1492
13.1400 8.7297 0.1454
13.1600 8.7431 0.1454
13.1800 8.7563 0.1525
13.2000 8.7696 0.1406
13.2200 8.7830 0.1472
13.2400 8.7964 0.1497
13.2600 8.8097 0.1380
13.2800 8.8230 0.1508
13.3000 8.8364 0.1464
13.3200 8.8498 0.1446
13.3400 8.8631 0.1409
13.3600 8.8764 0.1491
13.3800 8.8898 0.1409
13.4000 8.9031 0.1421
13.4200 8.9164 0.1464
13.4400 8.9297 0.1356
13.4600 8.9430 0.1431
13.4800 8.9563 0.1473
13.5000 8.9697 0.1373
13.5200 8.9831 0.1385
13.5400 8.9964 0.1442
13.5600 9.0097 0.1385
13.5800 9.0230 0.1397
13.6000 9.0363 0.1426
13.6200 9.0497 0.1307
13.6400 9.0630 0.1402
13.6600 9.0763 0.1401
13.6800 9.0897 0.1310
13.7000 9.1031 0.1390
13.7200 9.1164 0.1356
13.7400 9.1297 0.1287
13.7600 9.1431 0.1363
13.7800 9.1565 0.1346
13.8000 9.1698 0.1302
13.8200 9.1831 0.1373
13.8400 9.1964 0.1289
13.8600 9.2097 0.1331
13.8800 9.2230 0.1362
13.9000 9.2363 0.1291
13.9200 9.2497 0.1383
13.9400 9.2630 0.1302
13.9600 9.2763 0.1272
13.9800 9.2897 0.1374
14.0000 9.3030 0.1248
14.0200 9.3163 0.1308
14.0400 9.3297 0.1339
14.0600 9.3431 0.1258
14.0800 9.3564 0.1288
14.1000 9.3697 0.1339
14.1200 9.3831 0.1266
14.1400 9.3964 0.1281
14.1600 9.4097 0.1306
14.1800 9.4231 0.1234
14.2000 9.4364 0.1293
14.2200 9.4497 0.1324
14.2400 9.4631 0.1192
14.2600 9.4764 0.1311
14.2800 9.4896 0.1217
14.3000 9.5029 0.1223
14.3200 9.5163 0.1296
14.3400 9.5296 0.1174
14.3600 9.5430 0.1226
14.3800 9.5563 0.1275
14.4000 9.5697 0.1189
14.4200 9.5831 0.1201
14.4400 9.5965 0.1229
14.4600 9.6098 0.1214
14.4800 9.6231 0.1227
14.5000 9.6365 0.1220
14.5200 9.6498 0.1165
14.5400 9.6630 0.1214
14.5600 9.6763 0.1216
14.5800 9.6896 0.1169
14.6000 9.7030 0.1191
14.6200 9.7163 0.1165
14.6400 9.7297 0.1183
14.6600 9.7430 0.1159
14.6800 9.7564 0.1169
14.7000 9.7697 0.1179
14.7200 9.7831 0.1170
14.7400 9.7964 0.1117
14.7600 9.8098 0.1177
14.7800 9.8231 0.1132
14.8000 9.8365 0.1111
14.8200 9.8498 0.1166
14.8400 9.8631 0.1147
14.8600 9.8764 0.1138
14.8800 9.8897 0.1178
14.9000 9.9030 0.1103
14.9200 9.9163 0.1125
14.9400 9.9297 0.1130
14.9600 9.9430 0.1125
14.9800 9.9564 0.1075
15.0000 9.9697 0.1112
15.0200 9.9830 0.1130
15.0400 9.9963 0.1122
15.0600 10.0097 0.1107
15.0800 10.0230 0.1105
15.1000 10.0364 0.1123
15.1200 10.0497 0.1127
15.1400 10.0631 0.1104
15.1600 10.0764 0.1084
15.1800 10.0897 0.1110
15.2000 10.1031 0.1127
15.2200 10.1164 0.1090
15.2400 10.1298 0.1078
15.2600 10.1431 0.1120
15.2800 10.1564 0.1042
15.3000 10.1697 0.1133
15.3200 10.1831 0.1116
15.3400 10.1964 0.1018
15.3600 10.2096 0.1133
15.3800 10.2230 0.1108
15.4000 10.2363 0.0987
15.4200 10.2497 0.1113
15.4400 10.2630 0.1113
15.4600 10.2764 0.0999
15.4800 10.2897 0.1103
15.5000 10.3031 0.1079
15.5200 10.3164 0.0957
15.5400 10.3298 0.1092
15.5600 10.3431 0.1017
15.5800 10.3564 0.0931
15.6000 10.3698 0.1099
15.6200 10.3831 0.1015
15.6400 10.3964 0.0976
15.6600 10.4097 0.1072
15.6800 10.4230 0.0967
15.7000 10.4364 0.0966
15.7200 10.4497 0.1030
15.7400 10.4630 0.0976
15.7600 10.4763 0.0948
15.7800 10.4897 0.0954
15.8000 10.5030 0.0965
15.8200 10.5163 0.0965
15.8400 10.5297 0.0958
15.8600 10.5431 0.0966
15.8800 10.5564 0.0918
15.9000 10.5697 0.0875
15.9200 10.5831 0.1023
15.9400 10.5964 0.0881
15.9600 10.6098 0.0906
15.9800 10.6231 0.1026
16.0000 10.6364 0.0867
16.0200 10.6497 0.0945
16.0400 10.6630 0.1003
16.0600 10.6763 0.0836
16.0800 10.6897 0.0940
16.1000 10.7030 0.0982
16.1200 10.7163 0.0826
16.1400 10.7297 0.0916
16.1600 10.7430 0.0989
16.1800 10.7564 0.0816
16.2000 10.7697 0.0961
16.2200 10.7831 0.0949
16.2400 10.7964 0.0816
16.2600 10.8097 0.0940
16.2800 10.8230 0.0915
16.3000 10.8364 0.0797
16.3200 10.8498 0.0905
16.3400 10.8631 0.0849
16.3600 10.8764 0.0839
16.3800 10.8897 0.0938
16.4000 10.9031 0.0845
16.4200 10.9164 0.0821
16.4400 10.9297 0.0890
16.4600 10.9430 0.0835
16.4800 10.9563 0.0809
16.5000 10.9697 0.0844
16.5200 10.9830 0.0834
16.5400 10.9963 0.0780
16.5600 11.0097 0.0819
16.5800 11.0231 0.0820
16.6000 11.0364 0.0771
16.6200 11.0498 0.0870
16.6400 11.0631 0.0801
16.6600 11.0764 0.0759
16.6800 11.0898 0.0867
16.7000 11.1030 0.0825
16.7200 11.1163 0.0741
16.7400 11.1296 0.0814
16.7600 11.1430 0.0847
16.7800 11.1563 0.0758
16.8000 11.1697 0.0793
16.8200 11.1830 0.0851
16.8400 11.1964 0.0734
16.8600 11.2097 0.0770
16.8800 11.2231 0.0786
16.9000 11.2364 0.0758
16.9200 11.2497 0.0753
16.9400 11.2631 0.0732
16.9600 11.2764 0.0750
16.9800 11.2897 0.0803
17.0000 11.3030 0.0749
17.0200 11.3164 0.0765
17.0400 11.3297 0.0708
17.0600 11.3431 0.0718
17.0800 11.3564 0.0727
17.1000 11.3697 0.0719
17.1200 11.3831 0.0740
17.1400 11.3964 0.0706
17.1600 11.4097 0.0706
17.1800 11.4230 0.0703
17.2000 11.4363 0.0719
17.2200 11.4497 0.0656
17.2400 11.4630 0.0728
17.2600 11.4763 0.0694
17.2800 11.4897 0.0683
17.3000 11.5030 0.0754
17.3200 11.5164 0.0687
17.3400 11.5297 0.0640
17.3600 11.5430 0.0760
17.3800 11.5564 0.0683
17.4000 11.5698 0.0627
17.4200 11.5831 0.0733
17.4400 11.5964 0.0677
17.4600 11.6097 0.0647
17.4800 11.6231 0.0695
17.5000 11.6364 0.0654
17.5200 11.6497 0.0685
17.5400 11.6630 0.0706
17.5600 11.6763 0.0637
17.5800 11.6897 0.0641
17.6000 11.7030 0.0651
17.6200 11.7163 0.0631
17.6400 11.7297 0.0653
