Raw Data
Time Displacement Force
(s) (mm) (N)
0.0000 0.0000 -0.0093
0.0200 0.0001 -0.0027
0.0400 0.0020 0.0098
0.0600 0.0096 0.0041
0.0800 0.0215 -0.0075
0.1000 0.0340 -0.0062
0.1200 0.0467 -0.0091
0.1400 0.0601 -0.0046
0.1600 0.0741 -0.0078
0.1800 0.0883 -0.0072
0.2000 0.1022 -0.0073
0.2200 0.1158 -0.0107
0.2400 0.1291 -0.0082
0.2600 0.1424 -0.0062
0.2800 0.1557 -0.0068
0.3000 0.1690 -0.0078
0.3200 0.1824 -0.0045
0.3400 0.1958 -0.0079
0.3600 0.2091 -0.0070
0.3800 0.2225 -0.0068
0.4000 0.2359 -0.0058
0.4200 0.2492 -0.0092
0.4400 0.2625 -0.0046
0.4600 0.2758 -0.0072
0.4800 0.2892 -0.0058
0.5000 0.3025 -0.0042
0.5200 0.3158 -0.0064
0.5400 0.3291 -0.0064
0.5600 0.3425 -0.0036
0.5800 0.3558 -0.0043
0.6000 0.3691 -0.0049
0.6200 0.3824 -0.0025
0.6400 0.3958 -0.0032
0.6600 0.4091 -0.0034
0.6800 0.4224 -0.0026
0.7000 0.4358 -0.0028
0.7200 0.4492 -0.0025
0.7400 0.4625 -0.0005
0.7600 0.4759 -0.0016
0.7800 0.4892 -0.0029
0.8000 0.5025 -0.0003
0.8200 0.5159 -0.0009
0.8400 0.5292 0.0009
0.8600 0.5425 0.0029
0.8800 0.5558 0.0013
0.9000 0.5691 0.0014
0.9200 0.5825 0.0018
0.9400 0.5958 0.0021
0.9600 0.6091 0.0003
0.9800 0.6224 0.0023
1.0000 0.6357 0.0034
1.0200 0.6491 0.0033
1.0400 0.6624 0.0066
1.0600 0.6758 0.0044
1.0800 0.6891 0.0033
1.1000 0.7025 0.0066
1.1200 0.7159 0.0062
1.1400 0.7292 0.0066
1.1600 0.7425 0.0089
1.1800 0.7559 0.0103
1.2000 0.7693 0.0090
1.2200 0.7826 0.0116
1.2400 0.7959 0.0120
1.2600 0.8092 0.0118
1.2800 0.8225 0.0135
1.3000 0.8358 0.0141
1.3200 0.8491 0.0158
1.3400 0.8624 0.0176
1.3600 0.8758 0.0173
1.3800 0.8891 0.0172
1.4000 0.9025 0.0215
1.4200 0.9158 0.0210
1.4400 0.9291 0.0228
1.4600 0.9425 0.0222
1.4800 0.9559 0.0235
1.5000 0.9692 0.0237
1.5200 0.9825 0.0245
1.5400 0.9959 0.0253
1.5600 1.0092 0.0261
1.5800 1.0225 0.0320
1.6000 1.0358 0.0309
1.6200 1.0491 0.0317
1.6400 1.0625 0.0343
1.6600 1.0758 0.0359
1.6800 1.0892 0.0348
1.7000 1.1025 0.0367
1.7200 1.1158 0.0382
1.7400 1.1291 0.0382
1.7600 1.1425 0.0422
1.7800 1.1558 0.0431
1.8000 1.1692 0.0442
1.8200 1.1825 0.0482
1.8400 1.1958 0.0469
1.8600 1.2091 0.0486
1.8800 1.2225 0.0509
1.9000 1.2359 0.0515
1.9200 1.2492 0.0510
1.9400 1.2626 0.0547
1.9600 1.2759 0.0559
1.9800 1.2892 0.0584
2.0000 1.3025 0.0591
2.0200 1.3158 0.0622
2.0400 1.3291 0.0593
2.0600 1.3424 0.0633
2.0800 1.3558 0.0644
2.1000 1.3691 0.0651
2.1200 1.3825 0.0688
2.1400 1.3958 0.0691
2.1600 1.4091 0.0686
2.1800 1.4225 0.0728
2.2000 1.4359 0.0732
2.2200 1.4492 0.0738
2.2400 1.4625 0.0752
2.2600 1.4758 0.0766
2.2800 1.4892 0.0768
2.3000 1.5025 0.0781
2.3200 1.5158 0.0807
2.3400 1.5292 0.0791
2.3600 1.5425 0.0822
2.3800 1.5559 0.0835
2.4000 1.5692 0.0840
2.4200 1.5825 0.0874
2.4400 1.5958 0.0880
2.4600 1.6091 0.0882
2.4800 1.6224 0.0910
2.5000 1.6358 0.0949
2.5200 1.6491 0.0935
2.5400 1.6625 0.0954
2.5600 1.6759 0.0962
2.5800 1.6892 0.0950
2.6000 1.7025 0.0971
2.6200 1.7159 0.0988
2.6400 1.7293 0.0988
2.6600 1.7426 0.1014
2.6800 1.7559 0.1024
2.7000 1.7692 0.1027
2.7200 1.7825 0.1059
2.7400 1.7958 0.1069
2.7600 1.8091 0.1065
2.7800 1.8224 0.1070
2.8000 1.8357 0.1086
2.8200 1.8491 0.1099
2.8400 1.8624 0.1121
2.8600 1.8758 0.1126
2.8800 1.8891 0.1121
2.9000 1.9025 0.1124
2.9200 1.9159 0.1144
2.9400 1.9292 0.1139
2.9600 1.9426 0.1180
2.9800 1.9559 0.1183
3.0000 1.9693 0.1193
3.0200 1.9826 0.1204
3.0400 1.9958 0.1218
3.0600 2.0091 0.1195
3.0800 2.0225 0.1215
3.1000 2.0358 0.1234
3.1200 2.0492 0.1228
3.1400 2.0624 0.1253
3.1600 2.0758 0.1282
3.1800 2.0891 0.1269
3.2000 2.1025 0.1293
3.2200 2.1158 0.1281
3.2400 2.1291 0.1278
3.2600 2.1425 0.1310
3.2800 2.1559 0.1328
3.3000 2.1692 0.1306
3.3200 2.1825 0.1340
3.3400 2.1959 0.1354
3.3600 2.2092 0.1353
3.3800 2.2226 0.1357
3.4000 2.2359 0.1391
3.4200 2.2491 0.1374
3.4400 2.2625 0.1386
3.4600 2.2758 0.1380
3.4800 2.2891 0.1392
3.5000 2.3024 0.1435
3.5200 2.3157 0.1427
3.5400 2.3291 0.1432
3.5600 2.3425 0.1448
3.5800 2.3558 0.1443
3.6000 2.3691 0.1445
3.6200 2.3825 0.1449
3.6400 2.3959 0.1470
3.6600 2.4092 0.1473
3.6800 2.4225 0.1490
3.7000 2.4359 0.1503
3.7200 2.4492 0.1503
3.7400 2.4626 0.1512
3.7600 2.4759 0.1520
3.7800 2.4891 0.1523
3.8000 2.5025 0.1546
3.8200 2.5158 0.1571
3.8400 2.5291 0.1557
3.8600 2.5424 0.1567
3.8800 2.5558 0.1587
3.9000 2.5691 0.1591
3.9200 2.5825 0.1608
3.9400 2.5958 0.1618
3.9600 2.6091 0.1602
3.9800 2.6225 0.1628
4.0000 2.6359 0.1628
4.0200 2.6492 0.1643
4.0400 2.6625 0.1649
4.0600 2.6759 0.1666
4.0800 2.6893 0.1659
4.1000 2.7026 0.1652
4.1200 2.7159 0.1677
4.1400 2.7292 0.1684
4.1600 2.7425 0.1688
4.1800 2.7559 0.1714
4.2000 2.7692 0.1711
4.2200 2.7825 0.1714
4.2400 2.7957 0.1729
4.2600 2.8091 0.1729
4.2800 2.8225 0.1741
4.3000 2.8358 0.1761
4.3200 2.8491 0.1754
4.3400 2.8625 0.1793
4.3600 2.8759 0.1801
4.3800 2.8892 0.1806
4.4000 2.9025 0.1798
4.4200 2.9158 0.1816
4.4400 2.9292 0.1789
4.4600 2.9426 0.1837
4.4800 2.9559 0.1842
4.5000 2.9692 0.1835
4.5200 2.9825 0.1841
4.5400 2.9958 0.1873
4.5600 3.0092 0.1848
4.5800 3.0225 0.1896
4.6000 3.0358 0.1891
4.6200 3.0491 0.1884
4.6400 3.0624 0.1897
4.6600 3.0758 0.1921
4.6800 3.0891 0.1913
4.7000 3.1025 0.1902
4.7200 3.1159 0.1932
4.7400 3.1292 0.1910
4.7600 3.1426 0.1950
4.7800 3.1559 0.1951
4.8000 3.1692 0.1929
4.8200 3.1826 0.1944
4.8400 3.1959 0.1975
4.8600 3.2091 0.1982
4.8800 3.2225 0.1995
4.9000 3.2358 0.2015
4.9200 3.2491 0.1978
4.9400 3.2624 0.1999
4.9600 3.2758 0.2017
4.9800 3.2891 0.2027
5.0000 3.3025 0.2028
5.0200 3.3158 0.2041
5.0400 3.3291 0.2017
5.0600 3.3425 0.2050
5.0800 3.3559 0.2065
5.1000 3.3692 0.2065
5.1200 3.3825 0.2071
5.1400 3.3958 0.2078
5.1600 3.4092 0.2084
5.1800 3.4226 0.2079
5.2000 3.4359 0.2111
5.2200 3.4491 0.2108
5.2400 3.4624 0.2116
5.2600 3.4758 0.2114
5.2800 3.4891 0.2143
5.3000 3.5024 0.2146
5.3200 3.5158 0.2178
5.3400 3.5291 0.2138
5.3600 3.5425 0.2169
5.3800 3.5558 0.2158
5.4000 3.5692 0.2160
5.4200 3.5825 0.2181
5.4400 3.5959 0.2195
5.4600 3.6092 0.2179
5.4800 3.6225 0.2202
5.5000 3.6358 0.2195
5.5200 3.6492 0.2213
5.5400 3.6626 0.2215
5.5600 3.6759 0.2237
5.5800 3.6892 0.2217
5.6000 3.7025 0.2227
5.6200 3.7158 0.2228
5.6400 3.7292 0.2254
5.6600 3.7425 0.2248
5.6800 3.7558 0.2274
5.7000 3.7691 0.2269
5.7200 3.7825 0.2273
5.7400 3.7958 0.2292
5.7600 3.8091 0.2281
5.7800 3.8225 0.2281
5.8000 3.8359 0.2298
5.8200 3.8492 0.2288
5.8400 3.8625 0.2306
5.8600 3.8758 0.2326
5.8800 3.8892 0.2320
5.9000 3.9025 0.2349
5.9200 3.9159 0.2350
5.9400 3.9291 0.2348
5.9600 3.9424 0.2361
5.9800 3.9558 0.2350
6.0000 3.9692 0.2356
6.0200 3.9825 0.2373
6.0400 3.9958 0.2395
6.0600 4.0091 0.2380
6.0800 4.0225 0.2377
6.1000 4.0358 0.2405
6.1200 4.0491 0.2383
6.1400 4.0625 0.2414
6.1600 4.0758 0.2414
6.1800 4.0892 0.2417
6.2000 4.1025 0.2423
6.2200 4.1158 0.2435
6.2400 4.1292 0.2424
6.2600 4.1426 0.2439
6.2800 4.1559 0.2465
6.3000 4.1692 0.2463
6.3200 4.1825 0.2461
6.3400 4.1958 0.2465
6.3600 4.2092 0.2480
6.3800 4.2225 0.2492
6.4000 4.2358 0.2497
6.4200 4.2491 0.2474
6.4400 4.2625 0.2492
6.4600 4.2758 0.2511
6.4800 4.2891 0.2508
6.5000 4.3025 0.2501
6.5200 4.3159 0.2518
6.5400 4.3292 0.2525
6.5600 4.3426 0.2524
6.5800 4.3559 0.2538
6.6000 4.3692 0.2544
6.6200 4.3826 0.2565
6.6400 4.3959 0.2583
6.6600 4.4091 0.2575
6.6800 4.4224 0.2568
6.7000 4.4358 0.2592
6.7200 4.4492 0.2585
6.7400 4.4625 0.2598
6.7600 4.4758 0.2587
6.7800 4.4891 0.2607
6.8000 4.5024 0.2578
6.8200 4.5158 0.2600
6.8400 4.5291 0.2597
6.8600 4.5425 0.2601
6.8800 4.5558 0.2629
6.9000 4.5692 0.2634
6.9200 4.5825 0.2631
6.9400 4.5959 0.2673
6.9600 4.6092 0.2632
6.9800 4.6226 0.2648
7.0000 4.6359 0.2659
7.0200 4.6492 0.2676
7.0400 4.6625 0.2662
7.0600 4.6758 0.2670
7.0800 4.6891 0.2669
7.1000 4.7024 0.2688
7.1200 4.7158 0.2689
7.1400 4.7291 0.2716
7.1600 4.7425 0.2694
7.1800 4.7558 0.2693
7.2000 4.7692 0.2695
7.2200 4.7825 0.2691
7.2400 4.7959 0.2716
7.2600 4.8092 0.2715
7.2800 4.8226 0.2727
7.3000 4.8358 0.2734
7.3200 4.8492 0.2740
7.3400 4.8625 0.2733
7.3600 4.8759 0.2761
7.3800 4.8892 0.2758
7.4000 4.9025 0.2780
7.4200 4.9158 0.2790
7.4400 4.9292 0.2763
7.4600 4.9425 0.2772
7.4800 4.9558 0.2769
7.5000 4.9691 0.2788
7.5200 4.9825 0.2773
7.5400 4.9958 0.2802
7.5600 5.0091 0.2803
7.5800 5.0225 0.2784
7.6000 5.0358 0.2821
7.6200 5.0492 0.2813
7.6400 5.0625 0.2823
7.6600 5.0758 0.2826
7.6800 5.0892 0.2830
7.7000 5.1025 0.2825
7.7200 5.1159 0.2848
7.7400 5.1292 0.2844
7.7600 5.1425 0.2853
7.7800 5.1558 0.2856
7.8000 5.1692 0.2847
7.8200 5.1825 0.2847
7.8400 5.1958 0.2855
7.8600 5.2091 0.2883
7.8800 5.2224 0.2880
7.9000 5.2358 0.2887
7.9200 5.2491 0.2895
7.9400 5.2625 0.2877
7.9600 5.2759 0.2901
7.9800 5.2892 0.2924
8.0000 5.3025 0.2929
8.0200 5.3159 0.2922
8.0400 5.3292 0.2926
8.0600 5.3426 0.2922
8.0800 5.3559 0.2931
8.1000 5.3692 0.2923
8.1200 5.3825 0.2921
8.1400 5.3958 0.2925
8.1600 5.4092 0.2939
8.1800 5.4225 0.2946
8.2000 5.4358 0.2970
8.2200 5.4491 0.2963
8.2400 5.4624 0.2956
8.2600 5.4758 0.2965
8.2800 5.4891 0.2986
8.3000 5.5025 0.2968
8.3200 5.5158 0.2979
8.3400 5.5292 0.2976
8.3600 5.5425 0.2978
8.3800 5.5559 0.2982
8.4000 5.5692 0.3015
8.4200 5.5826 0.3011
8.4400 5.5959 0.3008
8.4600 5.6092 0.3004
8.4800 5.6225 0.3017
8.5000 5.6358 0.3031
8.5200 5.6492 0.3052
8.5400 5.6625 0.3032
8.5600 5.6758 0.3050
8.5800 5.6891 0.3052
8.6000 5.7024 0.3055
8.6200 5.7158 0.3052
8.6400 5.7291 0.3055
8.6600 5.7425 0.3055
8.6800 5.7558 0.3066
8.7000 5.7692 0.3086
8.7200 5.7825 0.3073
8.7400 5.7958 0.3079
8.7600 5.8092 0.3106
8.7800 5.8225 0.3088
8.8000 5.8359 0.3117
8.8200 5.8492 0.3103
8.8400 5.8625 0.3089
8.8600 5.8758 0.3109
8.8800 5.8892 0.3103
8.9000 5.9025 0.3126
8.9200 5.9158 0.3126
8.9400 5.9291 0.3147
8.9600 5.9425 0.3115
8.9800 5.9558 0.3144
9.0000 5.9691 0.3129
9.0200 5.9825 0.3146
9.0400 5.9958 0.3124
9.0600 6.0092 0.3133
9.0800 6.0225 0.3135
9.1000 6.0358 0.3161
9.1200 6.0492 0.3142
9.1400 6.0626 0.3148
9.1600 6.0759 0.3160
9.1800 6.0892 0.3163
9.2000 6.1025 0.3180
9.2200 6.1158 0.3185
9.2400 6.1291 0.3194
9.2600 6.1425 0.3183
9.2800 6.1558 0.3206
9.3000 6.1691 0.3187
9.3200 6.1824 0.3192
9.3400 6.1958 0.3202
9.3600 6.2091 0.3205
9.3800 6.2225 0.3213
9.4000 6.2358 0.3224
9.4200 6.2492 0.3228
9.4400 6.2626 0.3221
9.4600 6.2758 0.3232
9.4800 6.2892 0.3252
9.5000 6.3025 0.3277
9.5200 6.3159 0.3253
9.5400 6.3292 0.3269
9.5600 6.3425 0.3230
9.5800 6.3559 0.3237
9.6000 6.3692 0.3251
9.6200 6.3826 0.3249
9.6400 6.3958 0.3255
9.6600 6.4091 0.3261
9.6800 6.4224 0.3278
9.7000 6.4358 0.3280
9.7200 6.4491 0.3299
9.7400 6.4624 0.3281
9.7600 6.4758 0.3291
9.7800 6.4892 0.3295
9.8000 6.5026 0.3303
9.8200 6.5159 0.3298
9.8400 6.5292 0.3310
9.8600 6.5426 0.3290
9.8800 6.5559 0.3313
9.9000 6.5692 0.3305
9.9200 6.5825 0.3307
9.9400 6.5958 0.3322
9.9600 6.6091 0.3314
9.9800 6.6225 0.3346
10.0000 6.6358 0.3324
10.0200 6.6491 0.3350
10.0400 6.6624 0.3347
10.0600 6.6758 0.3355
10.0800 6.6891 0.3366
10.1000 6.7024 0.3362
10.1200 6.7158 0.3361
10.1400 6.7292 0.3373
10.1600 6.7426 0.3353
10.1800 6.7559 0.3370
10.2000 6.7692 0.3369
10.2200 6.7826 0.3385
10.2400 6.7959 0.3385
10.2600 6.8092 0.3401
10.2800 6.8225 0.3409
10.3000 6.8358 0.3402
10.3200 6.8492 0.3407
10.3400 6.8625 0.3388
10.3600 6.8758 0.3393
10.3800 6.8891 0.3404
10.4000 6.9024 0.3422
10.4200 6.9158 0.3412
10.4400 6.9291 0.3430
10.4600 6.9425 0.3425
10.4800 6.9558 0.3457
10.5000 6.9692 0.3427
10.5200 6.9826 0.3440
10.5400 6.9959 0.3410
10.5600 7.0092 0.3452
10.5800 7.0226 0.3439
10.6000 7.0359 0.3445
10.6200 7.0492 0.3452
10.6400 7.0625 0.3451
10.6600 7.0758 0.3458
10.6800 7.0891 0.3473
10.7000 7.1025 0.3458
10.7200 7.1158 0.3474
10.7400 7.1291 0.3455
10.7600 7.1424 0.3479
10.7800 7.1558 0.3494
10.8000 7.1691 0.3488
10.8200 7.1825 0.3495
10.8400 7.1958 0.3491
10.8600 7.2092 0.3492
10.8800 7.2226 0.3500
10.9000 7.2359 0.3517
10.9200 7.2492 0.3502
10.9400 7.2625 0.3524
10.9600 7.2759 0.3513
10.9800 7.2892 0.3527
11.0000 7.3025 0.3526
11.0200 7.3158 0.3548
11.0400 7.3291 0.3525
11.0600 7.3425 0.3528
11.0800 7.3558 0.3522
11.1000 7.3691 0.3553
11.1200 7.3824 0.3548
11.1400 7.3958 0.3539
11.1600 7.4091 0.3564
11.1800 7.4224 0.3562
11.2000 7.4358 0.3563
11.2200 7.4492 0.3572
11.2400 7.4626 0.3554
11.2600 7.4759 0.3569
11.2800 7.4892 0.3573
11.3000 7.5026 0.3587
11.3200 7.5159 0.3577
11.3400 7.5293 0.3580
11.3600 7.5425 0.3584
11.3800 7.5558 0.3593
11.4000 7.5692 0.3602
11.4200 7.5825 0.3602
11.4400 7.5958 0.3587
11.4600 7.6091 0.3590
11.4800 7.6224 0.3616
11.5000 7.6358 0.3617
11.5200 7.6491 0.3625
11.5400 7.6625 0.3634
11.5600 7.6758 0.3632
11.5800 7.6892 0.3630
11.6000 7.7025 0.3632
11.6200 7.7159 0.3616
11.6400 7.7292 0.3635
11.6600 7.7425 0.3648
11.6800 7.7559 0.3630
11.7000 7.7692 0.3669
11.7200 7.7825 0.3638
11.7400 7.7958 0.3654
11.7600 7.8092 0.3635
11.7800 7.8225 0.3673
11.8000 7.8358 0.3662
11.8200 7.8491 0.3687
11.8400 7.8624 0.3677
11.8600 7.8758 0.3665
11.8800 7.8891 0.3676
11.9000 7.9024 0.3695
11.9200 7.9158 0.3679
11.9400 7.9292 0.3681
11.9600 7.9426 0.3706
11.9800 7.9559 0.3696
12.0000 7.9692 0.3705
12.0200 7.9826 0.3703
12.0400 7.9959 0.3715
12.0600 8.0092 0.3705
12.0800 8.0225 0.3720
12.1000 8.0358 0.3724
12.1200 8.0491 0.3733
12.1400 8.0625 0.3722
12.1600 8.0758 0.3728
12.1800 8.0891 0.3724
12.2000 8.1024 0.3713
12.2200 8.1158 0.3732
12.2400 8.1292 0.3733
12.2600 8.1425 0.3729
12.2800 8.1558 0.3733
12.3000 8.1692 0.3749
12.3200 8.1826 0.3736
12.3400 8.1959 0.3769
12.3600 8.2092 0.3747
12.3800 8.2225 0.3765
12.4000 8.2359 0.3749
12.4200 8.2492 0.3752
12.4400 8.2625 0.3763
12.4600 8.2758 0.3765
12.4800 8.2891 0.3785
12.5000 8.3025 0.3792
12.5200 8.3158 0.3802
12.5400 8.3291 0.3776
12.5600 8.3424 0.3805
12.5800 8.3558 0.3778
12.6000 8.3692 0.3807
12.6200 8.3825 0.3797
12.6400 8.3958 0.3820
12.6600 8.4092 0.3791
12.6800 8.4226 0.3830
12.7000 8.4359 0.3825
12.7200 8.4492 0.3812
12.7400 8.4625 0.3826
12.7600 8.4759 0.3827
12.7800 8.4893 0.3849
12.8000 8.5025 0.3835
12.8200 8.5158 0.3844
12.8400 8.5291 0.3835
12.8600 8.5425 0.3849
12.8800 8.5558 0.3852
12.9000 8.5691 0.3842
12.9200 8.5824 0.3856
12.9400 8.5958 0.3854
12.9600 8.6091 0.3856
12.9800 8.6225 0.3854
13.0000 8.6358 0.3858
13.0200 8.6492 0.3844
13.0400 8.6625 0.3863
13.0600 8.6759 0.3877
13.0800 8.6892 0.3881
13.1000 8.7025 0.3886
13.1200 8.7159 0.3884
13.1400 8.7292 0.3888
13.1600 8.7425 0.3903
13.1800 8.7558 0.3903
13.2000 8.7691 0.3899
13.2200 8.7825 0.3924
13.2400 8.7958 0.3915
13.2600 8.8091 0.3910
13.2800 8.8224 0.3911
13.3000 8.8358 0.3912
13.3200 8.8491 0.3900
13.3400 8.8625 0.3929
13.3600 8.8758 0.3929
13.3800 8.8892 0.3920
13.4000 8.9025 0.3929
13.4200 8.9159 0.3934
13.4400 8.9292 0.3909
13.4600 8.9425 0.3951
13.4800 8.9559 0.3947
13.5000 8.9692 0.3942
13.5200 8.9825 0.3953
13.5400 8.9958 0.3941
13.5600 9.0091 0.3921
13.5800 9.0225 0.3950
13.6000 9.0358 0.3944
13.6200 9.0491 0.3959
13.6400 9.0624 0.3965
13.6600 9.0758 0.3988
13.6800 9.0891 0.3963
13.7000 9.1025 0.3963
13.7200 9.1158 0.3986
13.7400 9.1292 0.3971
13.7600 9.1426 0.3979
13.7800 9.1559 0.3992
13.8000 9.1692 0.3997
13.8200 9.1826 0.3990
13.8400 9.1959 0.4009
13.8600 9.2092 0.3986
13.8800 9.2225 0.4001
13.9000 9.2358 0.3984
13.9200 9.2491 0.3987
13.9400 9.2625 0.4017
13.9600 9.2758 0.4034
13.9800 9.2891 0.4014
14.0000 9.3024 0.4019
14.0200 9.3157 0.4037
14.0400 9.3291 0.4019
14.0600 9.3424 0.4032
14.0800 9.3558 0.4028
14.1000 9.3692 0.4041
14.1200 9.3826 0.4036
14.1400 9.3959 0.4053
14.1600 9.4092 0.4037
14.1800 9.4225 0.4037
14.2000 9.4359 0.4036
14.2200 9.4492 0.4041
14.2400 9.4625 0.4062
14.2600 9.4758 0.4084
14.2800 9.4891 0.4061
14.3000 9.5025 0.4076
14.3200 9.5158 0.4073
14.3400 9.5291 0.4070
14.3600 9.5424 0.4095
14.3800 9.5558 0.4103
14.4000 9.5691 0.4088
14.4200 9.5825 0.4094
14.4400 9.5958 0.4076
14.4600 9.6092 0.4079
14.4800 9.6226 0.4101
14.5000 9.6359 0.4099
14.5200 9.6492 0.4075
14.5400 9.6625 0.4093
14.5600 9.6758 0.4108
14.5800 9.6892 0.4094
14.6000 9.7025 0.4124
14.6200 9.7159 0.4126
14.6400 9.7292 0.4116
14.6600 9.7425 0.4145
14.6800 9.7558 0.4114
14.7000 9.7691 0.4114
14.7200 9.7825 0.4113
14.7400 9.7958 0.4136
14.7600 9.8091 0.4121
14.7800 9.8224 0.4122
14.8000 9.8358 0.4140
14.8200 9.8491 0.4140
14.8400 9.8625 0.4152
14.8600 9.8759 0.4145
14.8800 9.8892 0.4139
14.9000 9.9025 0.4153
14.9200 9.9158 0.4192
14.9400 9.9292 0.4150
14.9600 9.9425 0.4176
14.9800 9.9558 0.4165
15.0000 9.9692 0.4173
15.0200 9.9825 0.4156
15.0400 9.9959 0.4191
15.0600 10.0092 0.4163
15.0800 10.0224 0.4194
15.1000 10.0358 0.4196
15.1200 10.0491 0.4167
15.1400 10.0625 0.4182
15.1600 10.0758 0.4169
15.1800 10.0892 0.4187
15.2000 10.1025 0.4194
15.2200 10.1159 0.4221
15.2400 10.1292 0.4216
15.2600 10.1425 0.4222
15.2800 10.1559 0.4216
15.3000 10.1692 0.4204
15.3200 10.1826 0.4198
15.3400 10.1959 0.4218
15.3600 10.2092 0.4207
15.3800 10.2225 0.4225
15.4000 10.2358 0.4235
15.4200 10.2491 0.4231
15.4400 10.2624 0.4260
15.4600 10.2758 0.4244
15.4800 10.2891 0.4237
15.5000 10.3025 0.4241
15.5200 10.3158 0.4255
15.5400 10.3291 0.4256
15.5600 10.3425 0.4262
15.5800 10.3558 0.4264
15.6000 10.3692 0.4242
15.6200 10.3825 0.4260
15.6400 10.3959 0.4253
15.6600 10.4093 0.4254
15.6800 10.4226 0.4283
15.7000 10.4359 0.4300
15.7200 10.4492 0.4270
15.7400 10.4625 0.4299
15.7600 10.4758 0.4285
15.7800 10.4891 0.4292
15.8000 10.5024 0.4291
15.8200 10.5157 0.4293
15.8400 10.5291 0.4267
15.8600 10.5424 0.4288
15.8800 10.5558 0.4304
15.9000 10.5691 0.4296
15.9200 10.5825 0.4301
15.9400 10.5959 0.4316
15.9600 10.6092 0.4305
15.9800 10.6225 0.4316
16.0000 10.6358 0.4312
16.0200 10.6492 0.4309
16.0400 10.6626 0.4314
16.0600 10.6758 0.4328
16.0800 10.6892 0.4323
16.1000 10.7025 0.4340
16.1200 10.7159 0.4342
16.1400 10.7292 0.4334
16.1600 10.7425 0.4324
16.1800 10.7558 0.4348
16.2000 10.7691 0.4332
16.2200 10.7825 0.4361
16.2400 10.7958 0.4347
16.2600 10.8091 0.4362
16.2800 10.8225 0.4339
16.3000 10.8358 0.4361
16.3200 10.8492 0.4360
16.3400 10.8625 0.4377
16.3600 10.8759 0.4376
16.3800 10.8892 0.4357
16.4000 10.9025 0.4353
16.4200 10.9158 0.4382
16.4400 10.9291 0.4370
16.4600 10.9425 0.4392
16.4800 10.9558 0.4411
16.5000 10.9691 0.4390
16.5200 10.9824 0.4391
16.5400 10.9958 0.4399
16.5600 11.0091 0.4389
16.5800 11.0225 0.4395
16.6000 11.0358 0.4403
16.6200 11.0491 0.4413
16.6400 11.0625 0.4405
16.6600 11.0759 0.4416
16.6800 11.0892 0.4407
16.7000 11.1025 0.4420
16.7200 11.1158 0.4430
16.7400 11.1292 0.4419
16.7600 11.1425 0.4426
16.7800 11.1558 0.4447
16.8000 11.1692 0.4438
16.8200 11.1825 0.4420
16.8400 11.1959 0.4435
16.8600 11.2092 0.4443
16.8800 11.2224 0.4449
16.9000 11.2358 0.4464
16.9200 11.2491 0.4463
16.9400 11.2625 0.4446
16.9600 11.2758 0.4466
16.9800 11.2891 0.4442
17.0000 11.3025 0.4447
17.0200 11.3159 0.4452
17.0400 11.3293 0.4457
17.0600 11.3425 0.4461
17.0800 11.3559 0.4467
17.1000 11.3692 0.4469
17.1200 11.3826 0.4466
17.1400 11.3959 0.4488
17.1600 11.4092 0.4479
17.1800 11.4225 0.4484
17.2000 11.4358 0.4512
17.2200 11.4492 0.4489
17.2400 11.4625 0.4483
17.2600 11.4758 0.4503
17.2800 11.4891 0.4495
17.3000 11.5024 0.4502
17.3200 11.5158 0.4511
17.3400 11.5291 0.4505
17.3600 11.5425 0.4508
17.3800 11.5559 0.4490
17.4000 11.5692 0.4506
17.4200 11.5825 0.4500
17.4400 11.5959 0.4535
17.4600 11.6093 0.4534
17.4800 11.6226 0.4530
17.5000 11.6359 0.4545
17.5200 11.6492 0.4532
17.5400 11.6625 0.4533
17.5600 11.6758 0.4540
17.5800 11.6892 0.4521
17.6000 11.7025 0.4546
