Raw Data
Time Displacement Force
(s) (mm) (N)
0.0000 0.0000 -0.0049
0.0200 0.0001 -0.0025
0.0400 0.0020 0.0096
0.0600 0.0096 0.0080
0.0800 0.0215 -0.0058
0.1000 0.0340 -0.0028
0.1200 0.0467 -0.0054
0.1400 0.0601 -0.0035
0.1600 0.0741 -0.0050
0.1800 0.0883 -0.0044
0.2000 0.1022 -0.0089
0.2200 0.1157 -0.0071
0.2400 0.1291 -0.0051
0.2600 0.1424 -0.0053
0.2800 0.1557 -0.0066
0.3000 0.1691 -0.0065
0.3200 0.1824 -0.0051
0.3400 0.1958 -0.0090
0.3600 0.2091 -0.0056
0.3800 0.2225 -0.0084
0.4000 0.2359 -0.0061
0.4200 0.2492 -0.0060
0.4400 0.2625 -0.0070
0.4600 0.2758 -0.0059
0.4800 0.2892 -0.0051
0.5000 0.3025 -0.0072
0.5200 0.3158 -0.0079
0.5400 0.3291 -0.0058
0.5600 0.3425 -0.0064
0.5800 0.3558 -0.0057
0.6000 0.3691 -0.0062
0.6200 0.3824 -0.0055
0.6400 0.3958 -0.0079
0.6600 0.4091 -0.0040
0.6800 0.4224 -0.0080
0.7000 0.4358 -0.0057
0.7200 0.4492 -0.0061
0.7400 0.4625 -0.0054
0.7600 0.4759 -0.0079
0.7800 0.4892 -0.0043
0.8000 0.5025 -0.0045
0.8200 0.5159 -0.0040
0.8400 0.5292 -0.0027
0.8600 0.5426 -0.0035
0.8800 0.5558 -0.0054
0.9000 0.5692 -0.0022
0.9200 0.5825 -0.0046
0.9400 0.5958 -0.0030
0.9600 0.6091 -0.0003
0.9800 0.6224 -0.0015
1.0000 0.6357 -0.0003
1.0200 0.6491 0.0023
1.0400 0.6624 0.0013
1.0600 0.6758 0.0004
1.0800 0.6891 0.0042
1.1000 0.7025 0.0023
1.1200 0.7159 0.0010
1.1400 0.7292 0.0053
1.1600 0.7425 0.0038
1.1800 0.7559 0.0050
1.2000 0.7693 0.0083
1.2200 0.7826 0.0078
1.2400 0.7958 0.0096
1.2600 0.8092 0.0134
1.2800 0.8225 0.0125
1.3000 0.8358 0.0141
1.3200 0.8491 0.0167
1.3400 0.8624 0.0168
1.3600 0.8758 0.0171
1.3800 0.8891 0.0188
1.4000 0.9025 0.0188
1.4200 0.9158 0.0188
1.4400 0.9292 0.0227
1.4600 0.9425 0.0242
1.4800 0.9559 0.0240
1.5000 0.9692 0.0281
1.5200 0.9825 0.0263
1.5400 0.9959 0.0299
1.5600 1.0092 0.0324
1.5800 1.0225 0.0344
1.6000 1.0358 0.0335
1.6200 1.0491 0.0365
1.6400 1.0625 0.0372
1.6600 1.0759 0.0392
1.6800 1.0892 0.0436
1.7000 1.1025 0.0424
1.7200 1.1158 0.0420
1.7400 1.1292 0.0450
1.7600 1.1425 0.0478
1.7800 1.1558 0.0485
1.8000 1.1692 0.0526
1.8200 1.1825 0.0507
1.8400 1.1959 0.0530
1.8600 1.2092 0.0572
1.8800 1.2225 0.0593
1.9000 1.2359 0.0587
1.9200 1.2492 0.0617
1.9400 1.2626 0.0605
1.9600 1.2758 0.0614
1.9800 1.2891 0.0662
2.0000 1.3025 0.0668
2.0200 1.3158 0.0659
2.0400 1.3291 0.0697
2.0600 1.3424 0.0699
2.0800 1.3558 0.0708
2.1000 1.3691 0.0728
2.1200 1.3825 0.0732
2.1400 1.3958 0.0739
2.1600 1.4091 0.0761
2.1800 1.4225 0.0758
2.2000 1.4359 0.0776
2.2200 1.4492 0.0815
2.2400 1.4625 0.0814
2.2600 1.4758 0.0806
2.2800 1.4892 0.0833
2.3000 1.5026 0.0841
2.3200 1.5159 0.0877
2.3400 1.5292 0.0895
2.3600 1.5425 0.0906
2.3800 1.5559 0.0893
2.4000 1.5692 0.0928
2.4200 1.5825 0.0932
2.4400 1.5958 0.0954
2.4600 1.6091 0.0971
2.4800 1.6225 0.0994
2.5000 1.6358 0.0996
2.5200 1.6491 0.1033
2.5400 1.6625 0.1004
2.5600 1.6759 0.1005
2.5800 1.6892 0.1014
2.6000 1.7025 0.1018
2.6200 1.7159 0.1040
2.6400 1.7292 0.1074
2.6600 1.7426 0.1075
2.6800 1.7559 0.1078
2.7000 1.7692 0.1100
2.7200 1.7825 0.1110
2.7400 1.7958 0.1119
2.7600 1.8091 0.1166
2.7800 1.8224 0.1152
2.8000 1.8358 0.1151
2.8200 1.8491 0.1187
2.8400 1.8624 0.1155
2.8600 1.8758 0.1180
2.8800 1.8891 0.1205
2.9000 1.9025 0.1224
2.9200 1.9159 0.1224
2.9400 1.9292 0.1239
2.9600 1.9426 0.1232
2.9800 1.9559 0.1244
3.0000 1.9692 0.1281
3.0200 1.9826 0.1294
3.0400 1.9959 0.1305
3.0600 2.0091 0.1295
3.0800 2.0225 0.1307
3.1000 2.0358 0.1302
3.1200 2.0492 0.1324
3.1400 2.0625 0.1347
3.1600 2.0758 0.1361
3.1800 2.0891 0.1376
3.2000 2.1025 0.1364
3.2200 2.1158 0.1385
3.2400 2.1291 0.1382
3.2600 2.1425 0.1392
3.2800 2.1559 0.1403
3.3000 2.1692 0.1419
3.3200 2.1825 0.1418
3.3400 2.1959 0.1407
3.3600 2.2092 0.1426
3.3800 2.2226 0.1461
3.4000 2.2359 0.1474
3.4200 2.2491 0.1486
3.4400 2.2625 0.1483
3.4600 2.2758 0.1508
3.4800 2.2891 0.1510
3.5000 2.3024 0.1524
3.5200 2.3157 0.1509
3.5400 2.3291 0.1538
3.5600 2.3425 0.1522
3.5800 2.3558 0.1530
3.6000 2.3692 0.1545
3.6200 2.3825 0.1556
3.6400 2.3959 0.1568
3.6600 2.4092 0.1594
3.6800 2.4225 0.1588
3.7000 2.4359 0.1597
3.7200 2.4492 0.1607
3.7400 2.4626 0.1610
3.7600 2.4759 0.1610
3.7800 2.4891 0.1623
3.8000 2.5025 0.1636
3.8200 2.5158 0.1632
3.8400 2.5292 0.1661
3.8600 2.5425 0.1661
3.8800 2.5558 0.1645
3.9000 2.5691 0.1673
3.9200 2.5825 0.1691
3.9400 2.5958 0.1683
3.9600 2.6091 0.1691
3.9800 2.6225 0.1721
4.0000 2.6359 0.1719
4.0200 2.6492 0.1739
4.0400 2.6625 0.1735
4.0600 2.6759 0.1721
4.0800 2.6893 0.1755
4.1000 2.7026 0.1765
4.1200 2.7159 0.1769
4.1400 2.7292 0.1787
4.1600 2.7425 0.1796
4.1800 2.7559 0.1779
4.2000 2.7692 0.1806
4.2200 2.7825 0.1807
4.2400 2.7958 0.1801
4.2600 2.8091 0.1812
4.2800 2.8225 0.1835
4.3000 2.8358 0.1831
4.3200 2.8491 0.1850
4.3400 2.8625 0.1855
4.3600 2.8759 0.1844
4.3800 2.8892 0.1855
4.4000 2.9025 0.1876
4.4200 2.9158 0.1869
4.4400 2.9292 0.1915
4.4600 2.9426 0.1899
4.4800 2.9559 0.1909
4.5000 2.9692 0.1909
4.5200 2.9825 0.1921
4.5400 2.9959 0.1907
4.5600 3.0092 0.1933
4.5800 3.0225 0.1940
4.6000 3.0358 0.1962
4.6200 3.0491 0.1981
4.6400 3.0624 0.1997
4.6600 3.0758 0.1975
4.6800 3.0891 0.2003
4.7000 3.1025 0.2009
4.7200 3.1159 0.1993
4.7400 3.1292 0.2011
4.7600 3.1426 0.2039
4.7800 3.1559 0.2044
4.8000 3.1692 0.2023
4.8200 3.1826 0.2024
4.8400 3.1959 0.2026
4.8600 3.2092 0.2044
4.8800 3.2225 0.2061
4.9000 3.2358 0.2056
4.9200 3.2491 0.2070
4.9400 3.2624 0.2101
4.9600 3.2758 0.2056
4.9800 3.2891 0.2081
5.0000 3.3025 0.2078
5.0200 3.3158 0.2098
5.0400 3.3291 0.2120
5.0600 3.3425 0.2145
5.0800 3.3559 0.2121
5.1000 3.3692 0.2135
5.1200 3.3825 0.2152
5.1400 3.3958 0.2127
5.1600 3.4092 0.2154
5.1800 3.4226 0.2168
5.2000 3.4359 0.2170
5.2200 3.4492 0.2186
5.2400 3.4624 0.2190
5.2600 3.4758 0.2184
5.2800 3.4891 0.2186
5.3000 3.5024 0.2209
5.3200 3.5158 0.2193
5.3400 3.5291 0.2207
5.3600 3.5425 0.2223
5.3800 3.5558 0.2216
5.4000 3.5692 0.2227
5.4200 3.5825 0.2259
5.4400 3.5959 0.2240
5.4600 3.6092 0.2260
5.4800 3.6225 0.2267
5.5000 3.6359 0.2252
5.5200 3.6492 0.2278
5.5400 3.6626 0.2303
5.5600 3.6759 0.2301
5.5800 3.6892 0.2293
5.6000 3.7025 0.2315
5.6200 3.7158 0.2301
5.6400 3.7292 0.2306
5.6600 3.7425 0.2327
5.6800 3.7558 0.2316
5.7000 3.7691 0.2334
5.7200 3.7825 0.2355
5.7400 3.7958 0.2330
5.7600 3.8091 0.2351
5.7800 3.8225 0.2356
5.8000 3.8359 0.2350
5.8200 3.8492 0.2381
5.8400 3.8625 0.2399
5.8600 3.8758 0.2398
5.8800 3.8892 0.2398
5.9000 3.9026 0.2397
5.9200 3.9159 0.2398
5.9400 3.9291 0.2397
5.9600 3.9425 0.2433
5.9800 3.9558 0.2430
6.0000 3.9692 0.2439
6.0200 3.9825 0.2458
6.0400 3.9958 0.2429
6.0600 4.0091 0.2439
6.0800 4.0225 0.2465
6.1000 4.0358 0.2453
6.1200 4.0491 0.2448
6.1400 4.0625 0.2459
6.1600 4.0758 0.2457
6.1800 4.0892 0.2477
6.2000 4.1025 0.2492
6.2200 4.1158 0.2490
6.2400 4.1292 0.2493
6.2600 4.1426 0.2517
6.2800 4.1559 0.2502
6.3000 4.1692 0.2543
6.3200 4.1825 0.2551
6.3400 4.1958 0.2547
6.3600 4.2092 0.2528
6.3800 4.2225 0.2558
6.4000 4.2358 0.2545
6.4200 4.2491 0.2562
6.4400 4.2625 0.2571
6.4600 4.2758 0.2557
6.4800 4.2892 0.2561
6.5000 4.3025 0.2572
6.5200 4.3159 0.2580
6.5400 4.3292 0.2593
6.5600 4.3426 0.2606
6.5800 4.3559 0.2606
6.6000 4.3692 0.2626
6.6200 4.3826 0.2623
6.6400 4.3959 0.2622
6.6600 4.4092 0.2614
6.6800 4.4224 0.2638
6.7000 4.4358 0.2642
6.7200 4.4492 0.2637
6.7400 4.4625 0.2644
6.7600 4.4758 0.2643
6.7800 4.4891 0.2641
6.8000 4.5025 0.2665
6.8200 4.5158 0.2664
6.8400 4.5291 0.2668
6.8600 4.5425 0.2688
6.8800 4.5558 0.2660
6.9000 4.5692 0.2674
6.9200 4.5826 0.2706
6.9400 4.5959 0.2705
6.9600 4.6092 0.2723
6.9800 4.6226 0.2710
7.0000 4.6359 0.2722
7.0200 4.6492 0.2701
7.0400 4.6625 0.2735
7.0600 4.6758 0.2728
7.0800 4.6891 0.2743
7.1000 4.7024 0.2769
7.1200 4.7158 0.2743
7.1400 4.7291 0.2745
7.1600 4.7425 0.2755
7.1800 4.7558 0.2749
7.2000 4.7692 0.2737
7.2200 4.7825 0.2779
7.2400 4.7959 0.2766
7.2600 4.8092 0.2779
7.2800 4.8226 0.2799
7.3000 4.8359 0.2794
7.3200 4.8492 0.2799
7.3400 4.8625 0.2818
7.3600 4.8759 0.2807
7.3800 4.8892 0.2804
7.4000 4.9025 0.2845
7.4200 4.9158 0.2841
7.4400 4.9292 0.2847
7.4600 4.9425 0.2843
7.4800 4.9558 0.2829
7.5000 4.9691 0.2829
7.5200 4.9825 0.2858
7.5400 4.9958 0.2857
7.5600 5.0091 0.2854
7.5800 5.0225 0.2885
7.6000 5.0358 0.2865
7.6200 5.0492 0.2871
7.6400 5.0625 0.2906
7.6600 5.0758 0.2886
7.6800 5.0892 0.2863
7.7000 5.1025 0.2879
7.7200 5.1159 0.2879
7.7400 5.1292 0.2901
7.7600 5.1425 0.2919
7.7800 5.1558 0.2933
7.8000 5.1692 0.2909
7.8200 5.1825 0.2937
7.8400 5.1958 0.2924
7.8600 5.2091 0.2921
7.8800 5.2224 0.2944
7.9000 5.2358 0.2927
7.9200 5.2491 0.2948
7.9400 5.2625 0.2953
7.9600 5.2758 0.2956
7.9800 5.2892 0.2974
8.0000 5.3025 0.2978
8.0200 5.3159 0.2956
8.0400 5.3292 0.2963
8.0600 5.3426 0.2996
8.0800 5.3559 0.2990
8.1000 5.3692 0.2994
8.1200 5.3825 0.3007
8.1400 5.3958 0.3005
8.1600 5.4092 0.3000
8.1800 5.4225 0.3016
8.2000 5.4358 0.3024
8.2200 5.4491 0.3012
8.2400 5.4624 0.3018
8.2600 5.4758 0.3024
8.2800 5.4891 0.3036
8.3000 5.5025 0.3036
8.3200 5.5158 0.3029
8.3400 5.5292 0.3039
8.3600 5.5425 0.3062
8.3800 5.5559 0.3065
8.4000 5.5692 0.3063
8.4200 5.5826 0.3077
8.4400 5.5959 0.3069
8.4600 5.6092 0.3072
8.4800 5.6225 0.3062
8.5000 5.6358 0.3075
8.5200 5.6492 0.3082
8.5400 5.6625 0.3082
8.5600 5.6758 0.3103
8.5800 5.6891 0.3088
8.6000 5.7024 0.3100
8.6200 5.7158 0.3109
8.6400 5.7291 0.3106
8.6600 5.7425 0.3130
8.6800 5.7558 0.3117
8.7000 5.7692 0.3125
8.7200 5.7826 0.3129
8.7400 5.7959 0.3124
8.7600 5.8092 0.3130
8.7800 5.8225 0.3155
8.8000 5.8359 0.3142
8.8200 5.8492 0.3153
8.8400 5.8625 0.3163
8.8600 5.8758 0.3171
8.8800 5.8892 0.3163
8.9000 5.9025 0.3164
8.9200 5.9158 0.3168
8.9400 5.9291 0.3147
8.9600 5.9425 0.3179
8.9800 5.9558 0.3169
9.0000 5.9691 0.3192
9.0200 5.9825 0.3175
9.0400 5.9958 0.3197
9.0600 6.0092 0.3199
9.0800 6.0225 0.3218
9.1000 6.0359 0.3225
9.1200 6.0492 0.3219
9.1400 6.0626 0.3233
9.1600 6.0759 0.3228
9.1800 6.0892 0.3219
9.2000 6.1025 0.3226
9.2200 6.1158 0.3240
9.2400 6.1292 0.3229
9.2600 6.1425 0.3256
9.2800 6.1558 0.3246
9.3000 6.1691 0.3252
9.3200 6.1824 0.3253
9.3400 6.1958 0.3251
9.3600 6.2091 0.3249
9.3800 6.2225 0.3245
9.4000 6.2358 0.3280
9.4200 6.2492 0.3267
9.4400 6.2626 0.3284
9.4600 6.2759 0.3281
9.4800 6.2892 0.3273
9.5000 6.3025 0.3287
9.5200 6.3159 0.3293
9.5400 6.3292 0.3292
9.5600 6.3425 0.3310
9.5800 6.3559 0.3306
9.6000 6.3692 0.3293
9.6200 6.3825 0.3301
9.6400 6.3958 0.3322
9.6600 6.4091 0.3320
9.6800 6.4224 0.3323
9.7000 6.4358 0.3320
9.7200 6.4491 0.3335
9.7400 6.4624 0.3341
9.7600 6.4758 0.3347
9.7800 6.4892 0.3341
9.8000 6.5026 0.3354
9.8200 6.5159 0.3348
9.8400 6.5292 0.3347
9.8600 6.5426 0.3353
9.8800 6.5559 0.3386
9.9000 6.5693 0.3360
9.9200 6.5826 0.3362
9.9400 6.5958 0.3364
9.9600 6.6092 0.3358
9.9800 6.6225 0.3388
10.0000 6.6358 0.3389
10.0200 6.6491 0.3384
10.0400 6.6624 0.3419
10.0600 6.6758 0.3407
10.0800 6.6891 0.3403
10.1000 6.7024 0.3425
10.1200 6.7158 0.3427
10.1400 6.7292 0.3405
10.1600 6.7426 0.3404
10.1800 6.7559 0.3432
10.2000 6.7692 0.3425
10.2200 6.7826 0.3445
10.2400 6.7959 0.3461
10.2600 6.8092 0.3442
10.2800 6.8225 0.3439
10.3000 6.8358 0.3446
10.3200 6.8492 0.3419
10.3400 6.8625 0.3451
10.3600 6.8758 0.3459
10.3800 6.8891 0.3459
10.4000 6.9024 0.3461
10.4200 6.9158 0.3481
10.4400 6.9291 0.3478
10.4600 6.9425 0.3481
10.4800 6.9558 0.3479
10.5000 6.9692 0.3507
10.5200 6.9826 0.3494
10.5400 6.9959 0.3515
10.5600 7.0092 0.3492
10.5800 7.0226 0.3501
10.6000 7.0359 0.3493
10.6200 7.0492 0.3509
10.6400 7.0625 0.3504
10.6600 7.0758 0.3535
10.6800 7.0891 0.3513
10.7000 7.1025 0.3518
10.7200 7.1158 0.3525
10.7400 7.1291 0.3528
10.7600 7.1424 0.3539
10.7800 7.1558 0.3549
10.8000 7.1691 0.3540
10.8200 7.1825 0.3541
10.8400 7.1958 0.3545
10.8600 7.2092 0.3547
10.8800 7.2226 0.3572
10.9000 7.2359 0.3565
10.9200 7.2492 0.3579
10.9400 7.2625 0.3571
10.9600 7.2759 0.3568
10.9800 7.2892 0.3578
11.0000 7.3025 0.3576
11.0200 7.3158 0.3586
11.0400 7.3292 0.3579
11.0600 7.3425 0.3586
11.0800 7.3558 0.3600
11.1000 7.3691 0.3593
11.1200 7.3824 0.3615
11.1400 7.3958 0.3615
11.1600 7.4091 0.3600
11.1800 7.4225 0.3598
11.2000 7.4358 0.3601
11.2200 7.4492 0.3620
11.2400 7.4626 0.3629
11.2600 7.4759 0.3628
11.2800 7.4892 0.3641
11.3000 7.5026 0.3632
11.3200 7.5159 0.3668
11.3400 7.5293 0.3637
11.3600 7.5425 0.3651
11.3800 7.5558 0.3640
11.4000 7.5692 0.3644
11.4200 7.5825 0.3640
11.4400 7.5958 0.3654
11.4600 7.6091 0.3673
11.4800 7.6224 0.3669
11.5000 7.6358 0.3671
11.5200 7.6491 0.3669
11.5400 7.6625 0.3670
11.5600 7.6758 0.3673
11.5800 7.6892 0.3677
11.6000 7.7026 0.3686
11.6200 7.7159 0.3701
11.6400 7.7292 0.3676
11.6600 7.7425 0.3684
11.6800 7.7559 0.3696
11.7000 7.7692 0.3697
11.7200 7.7825 0.3715
11.7400 7.7958 0.3705
11.7600 7.8092 0.3727
11.7800 7.8225 0.3706
11.8000 7.8358 0.3730
11.8200 7.8491 0.3707
11.8400 7.8624 0.3710
11.8600 7.8758 0.3731
11.8800 7.8891 0.3737
11.9000 7.9024 0.3728
11.9200 7.9158 0.3733
11.9400 7.9292 0.3734
11.9600 7.9426 0.3753
11.9800 7.9559 0.3766
12.0000 7.9692 0.3775
12.0200 7.9826 0.3759
12.0400 7.9959 0.3770
12.0600 8.0092 0.3770
12.0800 8.0225 0.3769
12.1000 8.0358 0.3782
12.1200 8.0491 0.3781
12.1400 8.0625 0.3759
12.1600 8.0758 0.3810
12.1800 8.0891 0.3797
12.2000 8.1025 0.3804
12.2200 8.1158 0.3800
12.2400 8.1292 0.3807
12.2600 8.1425 0.3818
12.2800 8.1558 0.3817
12.3000 8.1692 0.3803
12.3200 8.1826 0.3804
12.3400 8.1959 0.3801
12.3600 8.2092 0.3815
12.3800 8.2225 0.3804
12.4000 8.2359 0.3837
12.4200 8.2492 0.3839
12.4400 8.2625 0.3852
12.4600 8.2758 0.3848
12.4800 8.2891 0.3849
12.5000 8.3025 0.3844
12.5200 8.3158 0.3840
12.5400 8.3291 0.3860
12.5600 8.3424 0.3839
12.5800 8.3558 0.3857
12.6000 8.3692 0.3847
12.6200 8.3825 0.3847
12.6400 8.3958 0.3864
12.6600 8.4092 0.3869
12.6800 8.4226 0.3861
12.7000 8.4359 0.3884
12.7200 8.4492 0.3883
12.7400 8.4625 0.3880
12.7600 8.4759 0.3879
12.7800 8.4892 0.3893
12.8000 8.5025 0.3903
12.8200 8.5158 0.3910
12.8400 8.5291 0.3896
12.8600 8.5425 0.3888
12.8800 8.5558 0.3899
12.9000 8.5691 0.3922
12.9200 8.5824 0.3901
12.9400 8.5958 0.3928
12.9600 8.6091 0.3897
12.9800 8.6225 0.3926
13.0000 8.6358 0.3923
13.0200 8.6492 0.3933
13.0400 8.6625 0.3929
13.0600 8.6759 0.3930
13.0800 8.6892 0.3935
13.1000 8.7025 0.3946
13.1200 8.7159 0.3955
13.1400 8.7292 0.3951
13.1600 8.7425 0.3954
13.1800 8.7558 0.3974
13.2000 8.7691 0.3952
13.2200 8.7825 0.3960
13.2400 8.7958 0.3959
13.2600 8.8091 0.3976
13.2800 8.8224 0.3962
13.3000 8.8358 0.3968
13.3200 8.8491 0.3967
13.3400 8.8625 0.3976
13.3600 8.8758 0.3969
13.3800 8.8892 0.3994
13.4000 8.9025 0.3980
13.4200 8.9159 0.4000
13.4400 8.9292 0.4002
13.4600 8.9425 0.3997
13.4800 8.9559 0.3987
13.5000 8.9692 0.3981
13.5200 8.9825 0.4004
13.5400 8.9958 0.4002
13.5600 9.0091 0.4020
13.5800 9.0225 0.4029
13.6000 9.0358 0.4039
13.6200 9.0491 0.4033
13.6400 9.0624 0.4050
13.6600 9.0758 0.4035
13.6800 9.0891 0.4051
13.7000 9.1025 0.4043
13.7200 9.1158 0.4053
13.7400 9.1292 0.4065
13.7600 9.1426 0.4046
13.7800 9.1559 0.4044
13.8000 9.1692 0.4068
13.8200 9.1826 0.4054
13.8400 9.1959 0.4056
13.8600 9.2092 0.4055
13.8800 9.2225 0.4059
13.9000 9.2358 0.4059
13.9200 9.2491 0.4077
13.9400 9.2625 0.4056
13.9600 9.2758 0.4061
13.9800 9.2891 0.4066
14.0000 9.3024 0.4102
14.0200 9.3158 0.4097
14.0400 9.3291 0.4105
14.0600 9.3424 0.4094
14.0800 9.3558 0.4115
14.1000 9.3692 0.4093
14.1200 9.3825 0.4109
14.1400 9.3959 0.4070
14.1600 9.4092 0.4111
14.1800 9.4225 0.4095
14.2000 9.4359 0.4136
14.2200 9.4492 0.4117
14.2400 9.4625 0.4122
14.2600 9.4758 0.4103
14.2800 9.4891 0.4117
14.3000 9.5025 0.4127
14.3200 9.5158 0.4126
14.3400 9.5291 0.4128
14.3600 9.5424 0.4141
14.3800 9.5558 0.4148
14.4000 9.5691 0.4152
14.4200 9.5825 0.4163
14.4400 9.5958 0.4155
14.4600 9.6092 0.4181
14.4800 9.6225 0.4162
14.5000 9.6359 0.4156
14.5200 9.6492 0.4162
14.5400 9.6625 0.4179
14.5600 9.6758 0.4170
14.5800 9.6892 0.4178
14.6000 9.7025 0.4184
14.6200 9.7159 0.4186
14.6400 9.7292 0.4209
14.6600 9.7425 0.4216
14.6800 9.7558 0.4182
14.7000 9.7691 0.4199
14.7200 9.7825 0.4192
14.7400 9.7958 0.4188
14.7600 9.8091 0.4207
14.7800 9.8225 0.4204
14.8000 9.8358 0.4198
14.8200 9.8491 0.4225
14.8400 9.8625 0.4222
14.8600 9.8759 0.4232
14.8800 9.8892 0.4230
14.9000 9.9025 0.4238
14.9200 9.9159 0.4206
14.9400 9.9292 0.4218
14.9600 9.9425 0.4232
14.9800 9.9558 0.4238
15.0000 9.9692 0.4255
15.0200 9.9825 0.4254
15.0400 9.9959 0.4241
15.0600 10.0092 0.4270
15.0800 10.0225 0.4251
15.1000 10.0358 0.4254
15.1200 10.0491 0.4249
15.1400 10.0625 0.4260
15.1600 10.0758 0.4276
15.1800 10.0892 0.4288
15.2000 10.1026 0.4296
15.2200 10.1159 0.4254
15.2400 10.1292 0.4255
15.2600 10.1425 0.4265
15.2800 10.1559 0.4265
15.3000 10.1692 0.4286
15.3200 10.1826 0.4283
15.3400 10.1959 0.4285
15.3600 10.2092 0.4300
15.3800 10.2225 0.4302
15.4000 10.2358 0.4296
15.4200 10.2492 0.4303
15.4400 10.2625 0.4314
15.4600 10.2758 0.4307
15.4800 10.2891 0.4304
15.5000 10.3025 0.4319
15.5200 10.3158 0.4304
15.5400 10.3291 0.4321
15.5600 10.3425 0.4304
15.5800 10.3558 0.4307
15.6000 10.3692 0.4329
15.6200 10.3825 0.4317
15.6400 10.3959 0.4323
15.6600 10.4093 0.4335
15.6800 10.4226 0.4347
15.7000 10.4359 0.4334
15.7200 10.4492 0.4349
15.7400 10.4625 0.4344
15.7600 10.4758 0.4321
15.7800 10.4891 0.4354
15.8000 10.5024 0.4345
15.8200 10.5158 0.4369
15.8400 10.5291 0.4353
15.8600 10.5425 0.4372
15.8800 10.5558 0.4354
15.9000 10.5691 0.4375
15.9200 10.5825 0.4369
15.9400 10.5959 0.4379
15.9600 10.6092 0.4379
15.9800 10.6225 0.4392
16.0000 10.6358 0.4385
16.0200 10.6492 0.4386
16.0400 10.6625 0.4424
16.0600 10.6758 0.4381
16.0800 10.6892 0.4406
16.1000 10.7025 0.4388
16.1200 10.7159 0.4393
16.1400 10.7292 0.4403
16.1600 10.7425 0.4414
16.1800 10.7558 0.4393
16.2000 10.7691 0.4416
16.2200 10.7825 0.4409
16.2400 10.7958 0.4404
16.2600 10.8091 0.4403
16.2800 10.8225 0.4417
16.3000 10.8359 0.4414
16.3200 10.8492 0.4433
16.3400 10.8625 0.4421
16.3600 10.8759 0.4418
16.3800 10.8892 0.4429
16.4000 10.9025 0.4436
16.4200 10.9158 0.4446
16.4400 10.9291 0.4464
16.4600 10.9425 0.4469
16.4800 10.9558 0.4452
16.5000 10.9692 0.4455
16.5200 10.9824 0.4469
16.5400 10.9958 0.4442
16.5600 11.0091 0.4482
16.5800 11.0225 0.4461
16.6000 11.0358 0.4463
16.6200 11.0491 0.4463
16.6400 11.0625 0.4488
16.6600 11.0759 0.4465
16.6800 11.0892 0.4487
16.7000 11.1025 0.4507
16.7200 11.1158 0.4490
16.7400 11.1292 0.4499
16.7600 11.1426 0.4504
16.7800 11.1559 0.4494
16.8000 11.1692 0.4488
16.8200 11.1825 0.4514
16.8400 11.1959 0.4500
16.8600 11.2092 0.4522
16.8800 11.2225 0.4504
16.9000 11.2358 0.4512
16.9200 11.2491 0.4513
16.9400 11.2625 0.4521
16.9600 11.2758 0.4509
16.9800 11.2891 0.4529
17.0000 11.3025 0.4535
17.0200 11.3159 0.4516
17.0400 11.3292 0.4529
17.0600 11.3425 0.4534
17.0800 11.3559 0.4529
17.1000 11.3692 0.4533
17.1200 11.3826 0.4543
17.1400 11.3959 0.4550
17.1600 11.4092 0.4558
17.1800 11.4225 0.4565
17.2000 11.4359 0.4556
17.2200 11.4492 0.4570
17.2400 11.4625 0.4566
17.2600 11.4758 0.4556
17.2800 11.4891 0.4557
17.3000 11.5024 0.4584
17.3200 11.5158 0.4580
17.3400 11.5291 0.4578
17.3600 11.5425 0.4572
17.3800 11.5559 0.4571
17.4000 11.5692 0.4576
17.4200 11.5826 0.4592
17.4400 11.5959 0.4583
17.4600 11.6093 0.4606
17.4800 11.6226 0.4590
17.5000 11.6359 0.4582
17.5200 11.6492 0.4603
17.5400 11.6625 0.4603
17.5600 11.6758 0.4596
17.5800 11.6892 0.4582
17.6000 11.7025 0.4604
