Raw Data
Time Displacement Force
(s) (mm) (N)
0.0000 0.0000 -0.0018
0.0200 0.0001 -0.0023
0.0400 0.0016 0.0142
0.0600 0.0083 0.0111
0.0800 0.0198 -0.0022
0.1000 0.0321 0.0011
0.1200 0.0447 0.0004
0.1400 0.0579 0.0000
0.1600 0.0720 0.0000
0.1800 0.0862 -0.0005
0.2000 0.1002 -0.0002
0.2200 0.1139 0.0004
0.2400 0.1273 0.0024
0.2600 0.1406 0.0017
0.2800 0.1540 0.0041
0.3000 0.1673 0.0011
0.3200 0.1807 0.0027
0.3400 0.1940 0.0033
0.3600 0.2074 0.0051
0.3800 0.2208 0.0057
0.4000 0.2341 0.0070
0.4200 0.2474 0.0056
0.4400 0.2608 0.0066
0.4600 0.2741 0.0107
0.4800 0.2875 0.0078
0.5000 0.3008 0.0093
0.5200 0.3141 0.0102
0.5400 0.3274 0.0161
0.5600 0.3408 0.0129
0.5800 0.3541 0.0180
0.6000 0.3674 0.0175
0.6200 0.3807 0.0185
0.6400 0.3941 0.0190
0.6600 0.4074 0.0217
0.6800 0.4207 0.0218
0.7000 0.4341 0.0266
0.7200 0.4474 0.0253
0.7400 0.4608 0.0266
0.7600 0.4741 0.0305
0.7800 0.4874 0.0321
0.8000 0.5008 0.0326
0.8200 0.5141 0.0374
0.8400 0.5275 0.0374
0.8600 0.5408 0.0394
0.8800 0.5541 0.0434
0.9000 0.5674 0.0431
0.9200 0.5808 0.0436
0.9400 0.5941 0.0443
0.9600 0.6074 0.0478
0.9800 0.6207 0.0490
1.0000 0.6340 0.0507
1.0200 0.6474 0.0516
1.0400 0.6607 0.0521
1.0600 0.6740 0.0555
1.0800 0.6874 0.0575
1.1000 0.7007 0.0594
1.1200 0.7141 0.0603
1.1400 0.7274 0.0640
1.1600 0.7408 0.0627
1.1800 0.7541 0.0690
1.2000 0.7675 0.0684
1.2200 0.7808 0.0706
1.2400 0.7941 0.0704
1.2600 0.8074 0.0733
1.2800 0.8208 0.0721
1.3000 0.8341 0.0753
1.3200 0.8474 0.0767
1.3400 0.8607 0.0775
1.3600 0.8740 0.0810
1.3800 0.8874 0.0799
1.4000 0.9007 0.0817
1.4200 0.9140 0.0832
1.4400 0.9274 0.0866
1.4600 0.9408 0.0862
1.4800 0.9541 0.0896
1.5000 0.9674 0.0893
1.5200 0.9807 0.0912
1.5400 0.9941 0.0936
1.5600 1.0074 0.0952
1.5800 1.0208 0.0928
1.6000 1.0341 0.0956
1.6200 1.0474 0.0965
1.6400 1.0608 0.0969
1.6600 1.0741 0.1013
1.6800 1.0874 0.1018
1.7000 1.1007 0.1010
1.7200 1.1140 0.1040
1.7400 1.1274 0.1041
1.7600 1.1407 0.1055
1.7800 1.1541 0.1068
1.8000 1.1674 0.1089
1.8200 1.1808 0.1090
1.8400 1.1941 0.1125
1.8600 1.2074 0.1145
1.8800 1.2208 0.1142
1.9000 1.2341 0.1156
1.9200 1.2475 0.1168
1.9400 1.2608 0.1179
1.9600 1.2741 0.1197
1.9800 1.2874 0.1207
2.0000 1.3008 0.1214
2.0200 1.3141 0.1240
2.0400 1.3274 0.1257
2.0600 1.3407 0.1248
2.0800 1.3540 0.1283
2.1000 1.3674 0.1290
2.1200 1.3807 0.1273
2.1400 1.3941 0.1292
2.1600 1.4074 0.1314
2.1800 1.4208 0.1304
2.2000 1.4341 0.1351
2.2200 1.4474 0.1352
2.2400 1.4607 0.1358
2.2600 1.4741 0.1375
2.2800 1.4875 0.1387
2.3000 1.5008 0.1387
2.3200 1.5141 0.1430
2.3400 1.5274 0.1429
2.3600 1.5408 0.1421
2.3800 1.5541 0.1450
2.4000 1.5674 0.1465
2.4200 1.5807 0.1460
2.4400 1.5941 0.1483
2.4600 1.6074 0.1492
2.4800 1.6207 0.1499
2.5000 1.6340 0.1516
2.5200 1.6473 0.1523
2.5400 1.6607 0.1522
2.5600 1.6741 0.1543
2.5800 1.6875 0.1570
2.6000 1.7008 0.1575
2.6200 1.7141 0.1582
2.6400 1.7275 0.1589
2.6600 1.7408 0.1565
2.6800 1.7541 0.1596
2.7000 1.7674 0.1627
2.7200 1.7807 0.1620
2.7400 1.7941 0.1639
2.7600 1.8074 0.1650
2.7800 1.8207 0.1651
2.8000 1.8340 0.1686
2.8200 1.8474 0.1692
2.8400 1.8607 0.1687
2.8600 1.8740 0.1702
2.8800 1.8874 0.1721
2.9000 1.9008 0.1700
2.9200 1.9141 0.1732
2.9400 1.9275 0.1759
2.9600 1.9408 0.1735
2.9800 1.9541 0.1760
3.0000 1.9675 0.1763
3.0200 1.9808 0.1761
3.0400 1.9941 0.1800
3.0600 2.0074 0.1804
3.0800 2.0207 0.1791
3.1000 2.0341 0.1801
3.1200 2.0474 0.1823
3.1400 2.0607 0.1834
3.1600 2.0740 0.1830
3.1800 2.0874 0.1852
3.2000 2.1007 0.1830
3.2200 2.1141 0.1860
3.2400 2.1274 0.1882
3.2600 2.1408 0.1876
3.2800 2.1542 0.1893
3.3000 2.1675 0.1913
3.3200 2.1808 0.1904
3.3400 2.1941 0.1921
3.3600 2.2075 0.1939
3.3800 2.2208 0.1931
3.4000 2.2341 0.1931
3.4200 2.2474 0.1961
3.4400 2.2607 0.1947
3.4600 2.2741 0.1974
3.4800 2.2874 0.1998
3.5000 2.3007 0.1984
3.5200 2.3140 0.2001
3.5400 2.3273 0.2022
3.5600 2.3407 0.2009
3.5800 2.3540 0.2015
3.6000 2.3674 0.2037
3.6200 2.3808 0.2038
3.6400 2.3942 0.2034
3.6600 2.4075 0.2065
3.6800 2.4208 0.2050
3.7000 2.4341 0.2088
3.7200 2.4475 0.2112
3.7400 2.4608 0.2101
3.7600 2.4741 0.2116
3.7800 2.4874 0.2139
3.8000 2.5007 0.2115
3.8200 2.5141 0.2149
3.8400 2.5274 0.2139
3.8600 2.5407 0.2124
3.8800 2.5540 0.2148
3.9000 2.5674 0.2184
3.9200 2.5807 0.2180
3.9400 2.5940 0.2193
3.9600 2.6073 0.2198
3.9800 2.6207 0.2189
4.0000 2.6341 0.2220
4.0200 2.6475 0.2245
4.0400 2.6608 0.2210
4.0600 2.6742 0.2224
4.0800 2.6875 0.2246
4.1000 2.7009 0.2237
4.1200 2.7142 0.2266
4.1400 2.7274 0.2270
4.1600 2.7407 0.2287
4.1800 2.7541 0.2284
4.2000 2.7674 0.2298
4.2200 2.7807 0.2291
4.2400 2.7940 0.2308
4.2600 2.8074 0.2305
4.2800 2.8207 0.2311
4.3000 2.8341 0.2326
4.3200 2.8474 0.2341
4.3400 2.8607 0.2324
4.3600 2.8741 0.2348
4.3800 2.8874 0.2363
4.4000 2.9007 0.2395
4.4200 2.9141 0.2373
4.4400 2.9275 0.2400
4.4600 2.9408 0.2382
4.4800 2.9541 0.2372
4.5000 2.9674 0.2397
4.5200 2.9808 0.2399
4.5400 2.9941 0.2416
4.5600 3.0074 0.2437
4.5800 3.0207 0.2412
4.6000 3.0340 0.2435
4.6200 3.0474 0.2462
4.6400 3.0607 0.2482
4.6600 3.0740 0.2480
4.6800 3.0874 0.2486
4.7000 3.1007 0.2484
4.7200 3.1141 0.2485
4.7400 3.1275 0.2504
4.7600 3.1408 0.2506
4.7800 3.1542 0.2497
4.8000 3.1675 0.2512
4.8200 3.1808 0.2505
4.8400 3.1941 0.2522
4.8600 3.2074 0.2564
4.8800 3.2207 0.2548
4.9000 3.2340 0.2543
4.9200 3.2473 0.2568
4.9400 3.2606 0.2562
4.9600 3.2740 0.2581
4.9800 3.2874 0.2578
5.0000 3.3007 0.2578
5.0200 3.3140 0.2570
5.0400 3.3274 0.2603
5.0600 3.3407 0.2604
5.0800 3.3541 0.2619
5.1000 3.3675 0.2627
5.1200 3.3808 0.2607
5.1400 3.3941 0.2616
5.1600 3.4074 0.2631
5.1800 3.4208 0.2636
5.2000 3.4341 0.2643
5.2200 3.4474 0.2648
5.2400 3.4607 0.2648
5.2600 3.4740 0.2668
5.2800 3.4874 0.2673
5.3000 3.5007 0.2680
5.3200 3.5140 0.2678
5.3400 3.5274 0.2704
5.3600 3.5407 0.2691
5.3800 3.5541 0.2718
5.4000 3.5674 0.2739
5.4200 3.5808 0.2711
5.4400 3.5941 0.2732
5.4600 3.6075 0.2744
5.4800 3.6208 0.2755
5.5000 3.6341 0.2739
5.5200 3.6475 0.2765
5.5400 3.6608 0.2752
5.5600 3.6742 0.2772
5.5800 3.6874 0.2785
5.6000 3.7007 0.2765
5.6200 3.7141 0.2780
5.6400 3.7274 0.2816
5.6600 3.7407 0.2788
5.6800 3.7540 0.2795
5.7000 3.7674 0.2801
5.7200 3.7807 0.2802
5.7400 3.7941 0.2820
5.7600 3.8074 0.2853
5.7800 3.8208 0.2833
5.8000 3.8341 0.2818
5.8200 3.8475 0.2826
5.8400 3.8608 0.2851
5.8600 3.8741 0.2847
5.8800 3.8874 0.2895
5.9000 3.9008 0.2888
5.9200 3.9141 0.2877
5.9400 3.9274 0.2900
5.9600 3.9407 0.2904
5.9800 3.9541 0.2894
6.0000 3.9674 0.2921
6.0200 3.9807 0.2909
6.0400 3.9940 0.2901
6.0600 4.0074 0.2939
6.0800 4.0207 0.2917
6.1000 4.0341 0.2898
6.1200 4.0474 0.2931
6.1400 4.0607 0.2937
6.1600 4.0741 0.2934
6.1800 4.0874 0.2972
6.2000 4.1008 0.2959
6.2200 4.1141 0.2961
6.2400 4.1274 0.2978
6.2600 4.1408 0.2962
6.2800 4.1541 0.2967
6.3000 4.1674 0.2983
6.3200 4.1807 0.2995
6.3400 4.1940 0.2996
6.3600 4.2074 0.3015
6.3800 4.2207 0.3007
6.4000 4.2340 0.2993
6.4200 4.2474 0.3033
6.4400 4.2607 0.3021
6.4600 4.2741 0.3020
6.4800 4.2874 0.3034
6.5000 4.3008 0.3030
6.5200 4.3141 0.3030
6.5400 4.3275 0.3052
6.5600 4.3408 0.3052
6.5800 4.3541 0.3048
6.6000 4.3675 0.3061
6.6200 4.3808 0.3076
6.6400 4.3941 0.3060
6.6600 4.4074 0.3100
6.6800 4.4207 0.3091
6.7000 4.4340 0.3087
6.7200 4.4474 0.3107
6.7400 4.4607 0.3111
6.7600 4.4740 0.3105
6.7800 4.4874 0.3116
6.8000 4.5007 0.3111
6.8200 4.5141 0.3119
6.8400 4.5274 0.3115
6.8600 4.5407 0.3123
6.8800 4.5541 0.3107
6.9000 4.5675 0.3138
6.9200 4.5808 0.3143
6.9400 4.5941 0.3147
6.9600 4.6075 0.3166
6.9800 4.6208 0.3165
7.0000 4.6341 0.3151
7.0200 4.6474 0.3188
7.0400 4.6607 0.3183
7.0600 4.6740 0.3172
7.0800 4.6874 0.3196
7.1000 4.7007 0.3185
7.1200 4.7140 0.3187
7.1400 4.7273 0.3206
7.1600 4.7407 0.3213
7.1800 4.7541 0.3187
7.2000 4.7674 0.3219
7.2200 4.7808 0.3206
7.2400 4.7942 0.3231
7.2600 4.8075 0.3240
7.2800 4.8208 0.3230
7.3000 4.8341 0.3225
7.3200 4.8474 0.3246
7.3400 4.8607 0.3259
7.3600 4.8741 0.3247
7.3800 4.8874 0.3271
7.4000 4.9007 0.3271
7.4200 4.9141 0.3275
7.4400 4.9274 0.3287
7.4600 4.9407 0.3281
7.4800 4.9540 0.3277
7.5000 4.9674 0.3293
7.5200 4.9807 0.3291
7.5400 4.9941 0.3272
7.5600 5.0074 0.3304
7.5800 5.0207 0.3296
7.6000 5.0341 0.3302
7.6200 5.0475 0.3328
7.6400 5.0608 0.3334
7.6600 5.0741 0.3328
7.6800 5.0874 0.3357
7.7000 5.1008 0.3356
7.7200 5.1141 0.3332
7.7400 5.1274 0.3377
7.7600 5.1407 0.3373
7.7800 5.1541 0.3355
7.8000 5.1674 0.3369
7.8200 5.1808 0.3351
7.8400 5.1941 0.3354
7.8600 5.2074 0.3386
7.8800 5.2207 0.3382
7.9000 5.2340 0.3372
7.9200 5.2474 0.3389
7.9400 5.2607 0.3405
7.9600 5.2741 0.3395
7.9800 5.2875 0.3398
8.0000 5.3008 0.3401
8.0200 5.3141 0.3384
8.0400 5.3275 0.3405
8.0600 5.3408 0.3431
8.0800 5.3542 0.3407
8.1000 5.3675 0.3447
8.1200 5.3808 0.3429
8.1400 5.3941 0.3438
8.1600 5.4074 0.3444
8.1800 5.4208 0.3470
8.2000 5.4341 0.3436
8.2200 5.4474 0.3456
8.2400 5.4607 0.3439
8.2600 5.4740 0.3437
8.2800 5.4874 0.3457
8.3000 5.5007 0.3485
8.3200 5.5141 0.3452
8.3400 5.5275 0.3491
8.3600 5.5408 0.3485
8.3800 5.5541 0.3504
8.4000 5.5674 0.3492
8.4200 5.5808 0.3497
8.4400 5.5942 0.3479
8.4600 5.6075 0.3477
8.4800 5.6208 0.3493
8.5000 5.6341 0.3488
8.5200 5.6474 0.3516
8.5400 5.6607 0.3526
8.5600 5.6740 0.3510
8.5800 5.6873 0.3507
8.6000 5.7007 0.3537
8.6200 5.7140 0.3525
8.6400 5.7274 0.3545
8.6600 5.7407 0.3541
8.6800 5.7541 0.3533
8.7000 5.7675 0.3530
8.7200 5.7808 0.3557
8.7400 5.7941 0.3539
8.7600 5.8074 0.3560
8.7800 5.8208 0.3585
8.8000 5.8341 0.3562
8.8200 5.8474 0.3560
8.8400 5.8607 0.3583
8.8600 5.8741 0.3577
8.8800 5.8874 0.3585
8.9000 5.9008 0.3578
8.9200 5.9141 0.3575
8.9400 5.9274 0.3605
8.9600 5.9407 0.3589
8.9800 5.9541 0.3613
9.0000 5.9674 0.3602
9.0200 5.9807 0.3621
9.0400 5.9941 0.3602
9.0600 6.0074 0.3620
9.0800 6.0208 0.3619
9.1000 6.0341 0.3621
9.1200 6.0474 0.3623
9.1400 6.0608 0.3641
9.1600 6.0742 0.3633
9.1800 6.0874 0.3641
9.2000 6.1007 0.3648
9.2200 6.1140 0.3647
9.2400 6.1274 0.3656
9.2600 6.1407 0.3668
9.2800 6.1540 0.3656
9.3000 6.1673 0.3653
9.3200 6.1807 0.3679
9.3400 6.1941 0.3659
9.3600 6.2074 0.3680
9.3800 6.2207 0.3687
9.4000 6.2341 0.3668
9.4200 6.2475 0.3669
9.4400 6.2608 0.3679
9.4600 6.2741 0.3686
9.4800 6.2874 0.3699
9.5000 6.3008 0.3696
9.5200 6.3141 0.3721
9.5400 6.3275 0.3711
9.5600 6.3408 0.3724
9.5800 6.3541 0.3717
9.6000 6.3675 0.3716
9.6200 6.3808 0.3728
9.6400 6.3941 0.3724
9.6600 6.4074 0.3746
9.6800 6.4207 0.3745
9.7000 6.4340 0.3740
9.7200 6.4473 0.3738
9.7400 6.4606 0.3745
9.7600 6.4740 0.3742
9.7800 6.4874 0.3762
9.8000 6.5008 0.3770
9.8200 6.5141 0.3764
9.8400 6.5274 0.3759
9.8600 6.5408 0.3757
9.8800 6.5542 0.3758
9.9000 6.5675 0.3779
9.9200 6.5808 0.3784
9.9400 6.5941 0.3781
9.9600 6.6074 0.3767
9.9800 6.6207 0.3783
10.0000 6.6340 0.3777
10.0200 6.6473 0.3805
10.0400 6.6607 0.3802
10.0600 6.6740 0.3802
10.0800 6.6873 0.3786
10.1000 6.7007 0.3807
10.1200 6.7141 0.3807
10.1400 6.7274 0.3814
10.1600 6.7408 0.3813
10.1800 6.7541 0.3806
10.2000 6.7674 0.3824
10.2200 6.7808 0.3820
10.2400 6.7942 0.3820
10.2600 6.8075 0.3827
10.2800 6.8208 0.3852
10.3000 6.8341 0.3855
10.3200 6.8474 0.3845
10.3400 6.8608 0.3876
10.3600 6.8741 0.3884
10.3800 6.8874 0.3871
10.4000 6.9007 0.3879
10.4200 6.9140 0.3865
10.4400 6.9274 0.3851
10.4600 6.9407 0.3873
10.4800 6.9541 0.3863
10.5000 6.9674 0.3864
10.5200 6.9808 0.3863
10.5400 6.9941 0.3864
10.5600 7.0075 0.3862
10.5800 7.0208 0.3900
10.6000 7.0342 0.3881
10.6200 7.0475 0.3896
10.6400 7.0608 0.3911
10.6600 7.0740 0.3893
10.6800 7.0874 0.3908
10.7000 7.1007 0.3917
10.7200 7.1140 0.3940
10.7400 7.1273 0.3911
10.7600 7.1407 0.3900
10.7800 7.1540 0.3895
10.8000 7.1674 0.3911
10.8200 7.1807 0.3931
10.8400 7.1941 0.3925
10.8600 7.2075 0.3927
10.8800 7.2208 0.3950
10.9000 7.2341 0.3934
10.9200 7.2475 0.3930
10.9400 7.2608 0.3952
10.9600 7.2742 0.3931
10.9800 7.2875 0.3937
11.0000 7.3008 0.3957
11.0200 7.3141 0.3961
11.0400 7.3274 0.3965
11.0600 7.3408 0.3963
11.0800 7.3541 0.3965
11.1000 7.3674 0.3964
11.1200 7.3807 0.3976
11.1400 7.3940 0.3991
11.1600 7.4074 0.3974
11.1800 7.4207 0.3991
11.2000 7.4341 0.3986
11.2200 7.4474 0.3986
11.2400 7.4608 0.3982
11.2600 7.4741 0.3998
11.2800 7.4875 0.4011
11.3000 7.5008 0.4024
11.3200 7.5142 0.4015
11.3400 7.5275 0.4000
11.3600 7.5408 0.4019
11.3800 7.5541 0.4018
11.4000 7.5674 0.4020
11.4200 7.5808 0.4028
11.4400 7.5941 0.4026
11.4600 7.6074 0.4020
11.4800 7.6207 0.4040
11.5000 7.6340 0.4027
11.5200 7.6474 0.4042
11.5400 7.6607 0.4053
11.5600 7.6741 0.4052
11.5800 7.6874 0.4053
11.6000 7.7008 0.4066
11.6200 7.7141 0.4057
11.6400 7.7274 0.4062
11.6600 7.7408 0.4070
11.6800 7.7541 0.4091
11.7000 7.7675 0.4061
11.7200 7.7808 0.4073
11.7400 7.7941 0.4060
11.7600 7.8074 0.4076
11.7800 7.8208 0.4071
11.8000 7.8341 0.4095
11.8200 7.8474 0.4079
11.8400 7.8607 0.4105
11.8600 7.8740 0.4082
11.8800 7.8874 0.4097
11.9000 7.9007 0.4113
11.9200 7.9140 0.4119
11.9400 7.9274 0.4113
11.9600 7.9408 0.4133
11.9800 7.9542 0.4109
12.0000 7.9675 0.4105
12.0200 7.9808 0.4116
12.0400 7.9942 0.4132
12.0600 8.0075 0.4123
12.0800 8.0208 0.4143
12.1000 8.0341 0.4129
12.1200 8.0474 0.4124
12.1400 8.0607 0.4130
12.1600 8.0740 0.4160
12.1800 8.0873 0.4150
12.2000 8.1007 0.4164
12.2200 8.1141 0.4181
12.2400 8.1274 0.4147
12.2600 8.1407 0.4154
12.2800 8.1541 0.4161
12.3000 8.1675 0.4161
12.3200 8.1808 0.4163
12.3400 8.1942 0.4164
12.3600 8.2075 0.4179
12.3800 8.2208 0.4214
12.4000 8.2341 0.4176
12.4200 8.2475 0.4185
12.4400 8.2608 0.4196
12.4600 8.2741 0.4190
12.4800 8.2874 0.4189
12.5000 8.3007 0.4200
12.5200 8.3141 0.4202
12.5400 8.3274 0.4189
12.5600 8.3407 0.4207
12.5800 8.3541 0.4210
12.6000 8.3674 0.4189
12.6200 8.3807 0.4213
12.6400 8.3941 0.4223
12.6600 8.4074 0.4236
12.6800 8.4208 0.4219
12.7000 8.4341 0.4244
12.7200 8.4474 0.4232
12.7400 8.4608 0.4254
12.7600 8.4742 0.4239
12.7800 8.4875 0.4240
12.8000 8.5008 0.4247
12.8200 8.5140 0.4257
12.8400 8.5274 0.4251
12.8600 8.5407 0.4268
12.8800 8.5540 0.4250
12.9000 8.5673 0.4259
12.9200 8.5807 0.4254
12.9400 8.5940 0.4274
12.9600 8.6074 0.4251
12.9800 8.6207 0.4276
13.0000 8.6341 0.4267
13.0200 8.6474 0.4269
13.0400 8.6608 0.4269
13.0600 8.6741 0.4280
13.0800 8.6874 0.4265
13.1000 8.7007 0.4276
13.1200 8.7141 0.4278
13.1400 8.7275 0.4287
13.1600 8.7408 0.4302
13.1800 8.7541 0.4299
13.2000 8.7674 0.4324
13.2200 8.7808 0.4324
13.2400 8.7941 0.4322
13.2600 8.8074 0.4322
13.2800 8.8207 0.4321
13.3000 8.8340 0.4333
13.3200 8.8474 0.4318
13.3400 8.8607 0.4311
13.3600 8.8741 0.4309
13.3800 8.8874 0.4318
13.4000 8.9008 0.4316
13.4200 8.9141 0.4337
13.4400 8.9274 0.4333
13.4600 8.9408 0.4338
13.4800 8.9541 0.4350
13.5000 8.9675 0.4340
13.5200 8.9808 0.4373
13.5400 8.9941 0.4345
13.5600 9.0074 0.4359
13.5800 9.0207 0.4354
13.6000 9.0341 0.4381
13.6200 9.0474 0.4361
13.6400 9.0607 0.4384
13.6600 9.0740 0.4372
13.6800 9.0874 0.4377
13.7000 9.1007 0.4371
13.7200 9.1141 0.4365
13.7400 9.1274 0.4365
13.7600 9.1408 0.4387
13.7800 9.1542 0.4373
13.8000 9.1675 0.4394
13.8200 9.1808 0.4384
13.8400 9.1941 0.4388
13.8600 9.2075 0.4396
13.8800 9.2208 0.4405
13.9000 9.2341 0.4409
13.9200 9.2474 0.4377
13.9400 9.2608 0.4390
13.9600 9.2741 0.4404
13.9800 9.2874 0.4414
14.0000 9.3007 0.4427
14.0200 9.3140 0.4435
14.0400 9.3274 0.4422
14.0600 9.3407 0.4419
14.0800 9.3540 0.4431
14.1000 9.3674 0.4437
14.1200 9.3808 0.4432
14.1400 9.3941 0.4432
14.1600 9.4074 0.4444
14.1800 9.4208 0.4456
14.2000 9.4341 0.4435
14.2200 9.4475 0.4451
14.2400 9.4608 0.4457
14.2600 9.4741 0.4461
14.2800 9.4874 0.4459
14.3000 9.5007 0.4448
14.3200 9.5141 0.4448
14.3400 9.5274 0.4469
14.3600 9.5407 0.4457
14.3800 9.5540 0.4469
14.4000 9.5674 0.4464
14.4200 9.5807 0.4485
14.4400 9.5941 0.4489
14.4600 9.6074 0.4485
14.4800 9.6208 0.4484
14.5000 9.6342 0.4483
14.5200 9.6475 0.4492
14.5400 9.6607 0.4490
14.5600 9.6741 0.4504
14.5800 9.6874 0.4505
14.6000 9.7008 0.4493
14.6200 9.7141 0.4484
14.6400 9.7274 0.4504
14.6600 9.7407 0.4482
14.6800 9.7541 0.4508
14.7000 9.7674 0.4521
14.7200 9.7807 0.4522
14.7400 9.7941 0.4527
14.7600 9.8074 0.4531
14.7800 9.8207 0.4513
14.8000 9.8340 0.4514
14.8200 9.8474 0.4527
14.8400 9.8608 0.4523
14.8600 9.8741 0.4537
14.8800 9.8874 0.4538
14.9000 9.9008 0.4538
14.9200 9.9141 0.4550
14.9400 9.9275 0.4552
14.9600 9.9408 0.4548
14.9800 9.9541 0.4557
15.0000 9.9674 0.4563
15.0200 9.9808 0.4553
15.0400 9.9941 0.4552
15.0600 10.0074 0.4543
15.0800 10.0207 0.4557
15.1000 10.0340 0.4571
15.1200 10.0474 0.4598
15.1400 10.0607 0.4571
15.1600 10.0740 0.4573
15.1800 10.0874 0.4577
15.2000 10.1008 0.4578
15.2200 10.1142 0.4583
15.2400 10.1275 0.4571
15.2600 10.1408 0.4595
15.2800 10.1541 0.4602
15.3000 10.1675 0.4607
15.3200 10.1808 0.4591
15.3400 10.1941 0.4609
15.3600 10.2074 0.4609
15.3800 10.2207 0.4621
15.4000 10.2341 0.4611
15.4200 10.2474 0.4624
15.4400 10.2607 0.4596
15.4600 10.2740 0.4626
15.4800 10.2874 0.4613
15.5000 10.3007 0.4615
15.5200 10.3140 0.4618
15.5400 10.3274 0.4634
15.5600 10.3407 0.4644
15.5800 10.3541 0.4642
15.6000 10.3674 0.4637
15.6200 10.3808 0.4649
15.6400 10.3941 0.4651
15.6600 10.4075 0.4658
15.6800 10.4208 0.4654
15.7000 10.4341 0.4658
15.7200 10.4474 0.4666
15.7400 10.4608 0.4666
15.7600 10.4741 0.4664
15.7800 10.4874 0.4664
15.8000 10.5007 0.4667
15.8200 10.5140 0.4674
15.8400 10.5274 0.4676
15.8600 10.5407 0.4685
15.8800 10.5540 0.4664
15.9000 10.5674 0.4680
15.9200 10.5808 0.4681
15.9400 10.5941 0.4698
15.9600 10.6075 0.4721
15.9800 10.6208 0.4693
16.0000 10.6341 0.4703
16.0200 10.6475 0.4691
16.0400 10.6608 0.4698
16.0600 10.6741 0.4707
16.0800 10.6874 0.4712
16.1000 10.7008 0.4701
16.1200 10.7141 0.4739
16.1400 10.7274 0.4738
16.1600 10.7407 0.4735
16.1800 10.7540 0.4706
16.2000 10.7674 0.4709
16.2200 10.7807 0.4697
16.2400 10.7941 0.4715
16.2600 10.8074 0.4717
16.2800 10.8208 0.4719
16.3000 10.8341 0.4712
16.3200 10.8474 0.4734
16.3400 10.8608 0.4717
16.3600 10.8741 0.4731
16.3800 10.8875 0.4746
16.4000 10.9008 0.4733
16.4200 10.9141 0.4745
16.4400 10.9274 0.4768
16.4600 10.9407 0.4760
16.4800 10.9541 0.4754
16.5000 10.9674 0.4752
16.5200 10.9807 0.4736
16.5400 10.9940 0.4757
16.5600 11.0074 0.4768
16.5800 11.0207 0.4745
16.6000 11.0341 0.4766
16.6200 11.0474 0.4761
16.6400 11.0608 0.4793
16.6600 11.0741 0.4797
16.6800 11.0875 0.4796
16.7000 11.1008 0.4801
16.7200 11.1141 0.4780
16.7400 11.1275 0.4789
16.7600 11.1408 0.4780
16.7800 11.1541 0.4802
16.8000 11.1674 0.4798
16.8200 11.1808 0.4799
16.8400 11.1941 0.4815
16.8600 11.2074 0.4823
16.8800 11.2207 0.4792
16.9000 11.2340 0.4820
16.9200 11.2474 0.4815
16.9400 11.2607 0.4809
16.9600 11.2740 0.4786
16.9800 11.2873 0.4822
17.0000 11.3007 0.4811
17.0200 11.3141 0.4824
17.0400 11.3275 0.4823
17.0600 11.3408 0.4825
17.0800 11.3541 0.4840
17.1000 11.3675 0.4839
17.1200 11.3808 0.4866
17.1400 11.3941 0.4835
17.1600 11.4074 0.4854
17.1800 11.4207 0.4832
17.2000 11.4341 0.4861
17.2200 11.4474 0.4846
17.2400 11.4607 0.4860
17.2600 11.4740 0.4860
17.2800 11.4874 0.4870
17.3000 11.5007 0.4866
17.3200 11.5140 0.4861
17.3400 11.5274 0.4887
17.3600 11.5408 0.4868
17.3800 11.5541 0.4894
17.4000 11.5675 0.4885
17.4200 11.5808 0.4906
17.4400 11.5941 0.4877
17.4600 11.6075 0.4880
17.4800 11.6208 0.4886
17.5000 11.6341 0.4887
17.5200 11.6474 0.4882
17.5400 11.6607 0.4887
17.5600 11.6741 0.4879
17.5800 11.6874 0.4905
17.6000 11.7007 0.4908
17.6200 11.7140 0.4910
17.6400 11.7274 0.4916
