Raw Data
Time Displacement Force
(s) (mm) (N)
0.0000 0.0000 0.0076
0.0200 0.0000 0.0041
0.0400 0.0007 0.0223
0.0600 0.0036 0.0468
0.0800 0.0089 0.0112
0.1000 0.0146 -0.0072
0.1200 0.0205 0.0259
0.1400 0.0270 0.0107
0.1600 0.0343 -0.0103
0.1800 0.0418 0.0165
0.2000 0.0491 0.0067
0.2200 0.0561 -0.0119
0.2400 0.0628 0.0089
0.2600 0.0694 0.0131
0.2800 0.0761 -0.0061
0.3000 0.0828 0.0178
0.3200 0.0894 0.0102
0.3400 0.0961 -0.0063
0.3600 0.1028 0.0152
0.3800 0.1096 0.0079
0.4000 0.1163 -0.0054
0.4200 0.1229 0.0206
0.4400 0.1296 0.0001
0.4600 0.1363 -0.0044
0.4800 0.1429 0.0202
0.5000 0.1495 0.0036
0.5200 0.1561 0.0004
0.5400 0.1628 0.0166
0.5600 0.1696 0.0047
0.5800 0.1763 0.0010
0.6000 0.1829 0.0211
0.6200 0.1896 0.0029
0.6400 0.1963 -0.0005
0.6600 0.2029 0.0202
0.6800 0.2095 0.0079
0.7000 0.2161 0.0028
0.7200 0.2228 0.0167
0.7400 0.2295 0.0069
0.7600 0.2362 0.0060
0.7800 0.2429 0.0194
0.8000 0.2496 0.0096
0.8200 0.2562 0.0044
0.8400 0.2629 0.0194
0.8600 0.2695 0.0078
0.8800 0.2761 0.0056
0.9000 0.2828 0.0203
0.9200 0.2895 0.0098
0.9400 0.2962 0.0035
0.9600 0.3029 0.0182
0.9800 0.3095 0.0119
1.0000 0.3162 0.0097
1.0200 0.3228 0.0147
1.0400 0.3294 0.0072
1.0600 0.3361 0.0121
1.0800 0.3428 0.0177
1.1000 0.3495 0.0082
1.1200 0.3563 0.0130
1.1400 0.3629 0.0163
1.1600 0.3696 0.0068
1.1800 0.3763 0.0115
1.2000 0.3829 0.0118
1.2200 0.3896 0.0184
1.2400 0.3962 0.0184
1.2600 0.4029 0.0086
1.2800 0.4096 0.0115
1.3000 0.4163 0.0136
1.3200 0.4229 0.0140
1.3400 0.4296 0.0140
1.3600 0.4363 0.0116
1.3800 0.4429 0.0123
1.4000 0.4495 0.0122
1.4200 0.4561 0.0174
1.4400 0.4628 0.0129
1.4600 0.4695 0.0156
1.4800 0.4762 0.0167
1.5000 0.4829 0.0079
1.5200 0.4896 0.0222
1.5400 0.4962 0.0138
1.5600 0.5029 0.0124
1.5800 0.5095 0.0205
1.6000 0.5161 0.0150
1.6200 0.5228 0.0135
1.6400 0.5296 0.0240
1.6600 0.5363 0.0101
1.6800 0.5429 0.0112
1.7000 0.5496 0.0187
1.7200 0.5562 0.0128
1.7400 0.5629 0.0142
1.7600 0.5695 0.0189
1.7800 0.5762 0.0089
1.8000 0.5829 0.0149
1.8200 0.5896 0.0191
1.8400 0.5962 0.0119
1.8600 0.6029 0.0192
1.8800 0.6096 0.0161
1.9000 0.6163 0.0098
1.9200 0.6229 0.0134
1.9400 0.6295 0.0204
1.9600 0.6361 0.0132
1.9800 0.6428 0.0163
2.0000 0.6495 0.0173
2.0200 0.6562 0.0092
2.0400 0.6629 0.0126
2.0600 0.6696 0.0253
2.0800 0.6763 0.0131
2.1000 0.6829 0.0028
2.1200 0.6895 0.0202
2.1400 0.6961 0.0227
2.1600 0.7028 0.0052
2.1800 0.7095 0.0192
2.2000 0.7162 0.0166
2.2200 0.7229 0.0038
2.2400 0.7295 0.0193
2.2600 0.7362 0.0211
2.2800 0.7429 0.0123
2.3000 0.7495 0.0139
2.3200 0.7561 0.0165
2.3400 0.7628 0.0082
2.3600 0.7695 0.0197
2.3800 0.7762 0.0146
2.4000 0.7829 0.0069
2.4200 0.7896 0.0169
2.4400 0.7963 0.0108
2.4600 0.8029 0.0096
2.4800 0.8095 0.0226
2.5000 0.8161 0.0089
2.5200 0.8228 0.0114
2.5400 0.8295 0.0157
2.5600 0.8363 0.0097
2.5800 0.8430 0.0167
2.6000 0.8496 0.0155
2.6200 0.8563 0.0124
2.6400 0.8629 0.0121
2.6600 0.8695 0.0201
2.6800 0.8762 0.0120
2.7000 0.8828 0.0163
2.7200 0.8896 0.0175
2.7400 0.8963 0.0104
2.7600 0.9029 0.0115
2.7800 0.9096 0.0099
2.8000 0.9163 0.0137
2.8200 0.9229 0.0155
2.8400 0.9295 0.0076
2.8600 0.9362 0.0218
2.8800 0.9428 0.0088
2.9000 0.9495 0.0088
2.9200 0.9562 0.0199
2.9400 0.9629 0.0112
2.9600 0.9696 0.0061
2.9800 0.9763 0.0138
3.0000 0.9829 0.0087
3.0200 0.9895 0.0033
3.0400 0.9961 0.0219
3.0600 1.0027 0.0112
3.0800 1.0095 0.0070
3.1000 1.0162 0.0149
3.1200 1.0229 0.0010
3.1400 1.0295 0.0115
3.1600 1.0362 0.0194
3.1800 1.0429 0.0024
3.2000 1.0495 0.0130
3.2200 1.0561 0.0179
3.2400 1.0628 -0.0011
3.2600 1.0695 0.0094
3.2800 1.0762 0.0215
3.3000 1.0829 -0.0021
3.3200 1.0896 0.0105
3.3400 1.0963 0.0128
3.3600 1.1030 -0.0023
3.3800 1.1096 0.0129
3.4000 1.1162 0.0121
3.4200 1.1229 0.0042
3.4400 1.1295 0.0127
3.4600 1.1362 0.0084
3.4800 1.1429 0.0020
3.5000 1.1496 0.0126
3.5200 1.1563 0.0203
3.5400 1.1629 -0.0044
3.5600 1.1695 0.0050
3.5800 1.1762 0.0170
3.6000 1.1828 -0.0022
3.6200 1.1895 0.0114
3.6400 1.1962 0.0103
3.6600 1.2029 0.0025
3.6800 1.2096 0.0067
3.7000 1.2162 0.0156
3.7200 1.2229 -0.0003
3.7400 1.2295 0.0057
3.7600 1.2361 0.0151
3.7800 1.2428 0.0024
3.8000 1.2495 0.0112
3.8200 1.2562 0.0132
3.8400 1.2629 0.0020
3.8600 1.2695 0.0110
3.8800 1.2762 0.0173
3.9000 1.2829 0.0090
3.9200 1.2895 0.0060
3.9400 1.2962 0.0145
3.9600 1.3028 0.0055
3.9800 1.3095 0.0075
4.0000 1.3162 0.0225
4.0200 1.3229 0.0039
4.0400 1.3296 0.0058
4.0600 1.3363 0.0156
4.0800 1.3429 0.0098
4.1000 1.3495 0.0071
4.1200 1.3561 0.0197
4.1400 1.3628 0.0074
4.1600 1.3695 0.0048
4.1800 1.3763 0.0175
4.2000 1.3829 0.0054
4.2200 1.3896 0.0116
4.2400 1.3963 0.0193
4.2600 1.4029 0.0012
4.2800 1.4096 0.0134
4.3000 1.4162 0.0187
4.3200 1.4228 0.0104
4.3400 1.4295 0.0135
4.3600 1.4362 0.0144
4.3800 1.4429 0.0090
4.4000 1.4495 0.0154
4.4200 1.4562 0.0142
4.4400 1.4629 0.0069
4.4600 1.4695 0.0186
4.4800 1.4761 0.0151
4.5000 1.4828 0.0088
4.5200 1.4895 0.0114
4.5400 1.4962 0.0143
4.5600 1.5029 0.0074
4.5800 1.5096 0.0123
4.6000 1.5163 0.0117
4.6200 1.5229 0.0103
4.6400 1.5295 0.0051
4.6600 1.5361 0.0138
4.6800 1.5428 0.0158
4.7000 1.5495 0.0125
4.7200 1.5562 0.0097
4.7400 1.5630 0.0103
4.7600 1.5696 0.0111
4.7800 1.5763 0.0126
4.8000 1.5830 0.0121
4.8200 1.5896 0.0072
4.8400 1.5962 0.0152
4.8600 1.6028 0.0128
4.8800 1.6095 0.0069
4.9000 1.6162 0.0099
4.9200 1.6229 0.0116
4.9400 1.6295 0.0073
4.9600 1.6362 0.0169
4.9800 1.6429 0.0100
5.0000 1.6496 0.0060
5.0200 1.6562 0.0152
5.0400 1.6628 0.0116
5.0600 1.6695 0.0031
5.0800 1.6762 0.0181
5.1000 1.6829 0.0102
5.1200 1.6896 0.0032
5.1400 1.6963 0.0197
5.1600 1.7029 0.0081
5.1800 1.7096 0.0031
5.2000 1.7162 0.0210
5.2200 1.7228 0.0099
5.2400 1.7295 0.0039
5.2600 1.7362 0.0206
5.2800 1.7429 0.0065
5.3000 1.7496 0.0079
5.3200 1.7562 0.0218
5.3400 1.7629 0.0042
5.3600 1.7695 0.0072
5.3800 1.7762 0.0260
5.4000 1.7828 0.0030
5.4200 1.7895 0.0114
5.4400 1.7962 0.0203
5.4600 1.8029 0.0049
5.4800 1.8096 0.0085
5.5000 1.8163 0.0211
5.5200 1.8230 0.0074
5.5400 1.8296 0.0084
5.5600 1.8362 0.0166
5.5800 1.8428 0.0119
5.6000 1.8495 0.0113
5.6200 1.8562 0.0163
5.6400 1.8629 0.0095
5.6600 1.8696 0.0080
5.6800 1.8763 0.0144
5.7000 1.8829 0.0102
5.7200 1.8896 0.0107
5.7400 1.8962 0.0085
5.7600 1.9028 0.0168
5.7800 1.9095 0.0096
5.8000 1.9162 0.0100
5.8200 1.9229 0.0153
5.8400 1.9295 0.0080
5.8600 1.9362 0.0094
5.8800 1.9429 0.0123
5.9000 1.9495 0.0083
5.9200 1.9561 0.0093
5.9400 1.9628 0.0111
5.9600 1.9695 0.0098
5.9800 1.9762 0.0109
6.0000 1.9829 0.0137
6.0200 1.9896 0.0049
6.0400 1.9962 0.0134
6.0600 2.0029 0.0115
6.0800 2.0096 -0.0035
6.1000 2.0162 0.0227
6.1200 2.0228 0.0138
6.1400 2.0295 -0.0033
6.1600 2.0362 0.0173
6.1800 2.0429 0.0132
6.2000 2.0496 0.0009
6.2200 2.0563 0.0187
6.2400 2.0629 0.0109
6.2600 2.0696 -0.0030
6.2800 2.0762 0.0179
6.3000 2.0828 0.0147
6.3200 2.0895 -0.0006
6.3400 2.0962 0.0144
6.3600 2.1029 0.0117
6.3800 2.1096 0.0012
6.4000 2.1163 0.0083
6.4200 2.1229 0.0076
6.4400 2.1296 0.0127
6.4600 2.1362 0.0161
6.4800 2.1429 0.0056
6.5000 2.1495 0.0034
6.5200 2.1562 0.0053
6.5400 2.1629 0.0151
6.5600 2.1695 0.0232
6.5800 2.1762 -0.0034
6.6000 2.1829 -0.0013
6.6200 2.1896 0.0149
6.6400 2.1962 0.0027
6.6600 2.2028 0.0150
6.6800 2.2095 0.0242
6.7000 2.2162 -0.0115
6.7200 2.2229 0.0122
6.7400 2.2296 0.0174
6.7600 2.2362 -0.0051
6.7800 2.2429 0.0257
6.8000 2.2495 0.0149
6.8200 2.2562 -0.0133
6.8400 2.2628 0.0226
6.8600 2.2695 0.0149
6.8800 2.2762 0.0008
6.9000 2.2829 0.0251
6.9200 2.2896 0.0055
6.9400 2.2962 -0.0008
6.9600 2.3029 0.0174
6.9800 2.3096 0.0058
7.0000 2.3162 0.0113
7.0200 2.3228 0.0244
7.0400 2.3295 0.0005
7.0600 2.3362 0.0075
7.0800 2.3429 0.0148
7.1000 2.3496 0.0067
7.1200 2.3563 0.0181
7.1400 2.3630 0.0126
7.1600 2.3696 0.0008
7.1800 2.3762 0.0127
7.2000 2.3828 0.0101
7.2200 2.3895 0.0112
7.2400 2.3962 0.0232
7.2600 2.4029 0.0071
7.2800 2.4096 0.0018
7.3000 2.4162 0.0110
7.3200 2.4229 0.0125
7.3400 2.4295 0.0168
7.3600 2.4362 0.0113
7.3800 2.4428 0.0077
7.4000 2.4495 0.0150
7.4200 2.4562 0.0082
7.4400 2.4629 0.0130
7.4600 2.4695 0.0132
7.4800 2.4762 0.0100
7.5000 2.4829 0.0128
7.5200 2.4896 0.0103
7.5400 2.4962 0.0058
7.5600 2.5028 0.0143
7.5800 2.5095 0.0146
7.6000 2.5162 0.0064
7.6200 2.5229 0.0091
7.6400 2.5296 0.0134
7.6600 2.5363 0.0085
7.6800 2.5430 0.0116
7.7000 2.5496 0.0111
7.7200 2.5562 0.0031
7.7400 2.5628 0.0138
7.7600 2.5695 0.0147
7.7800 2.5762 0.0054
7.8000 2.5829 0.0144
7.8200 2.5896 0.0130
7.8400 2.5962 0.0016
7.8600 2.6029 0.0116
7.8800 2.6096 0.0165
7.9000 2.6162 0.0022
7.9200 2.6228 0.0084
7.9400 2.6295 0.0193
7.9600 2.6362 0.0040
7.9800 2.6429 0.0168
8.0000 2.6495 0.0111
8.0200 2.6562 0.0022
8.0400 2.6629 0.0136
8.0600 2.6696 0.0097
8.0800 2.6762 0.0046
8.1000 2.6828 0.0198
8.1200 2.6894 0.0114
8.1400 2.6961 0.0004
8.1600 2.7029 0.0163
8.1800 2.7096 0.0110
8.2000 2.7162 0.0066
8.2200 2.7229 0.0157
8.2400 2.7296 0.0113
8.2600 2.7362 0.0053
8.2800 2.7428 0.0149
8.3000 2.7495 0.0116
8.3200 2.7562 0.0064
8.3400 2.7629 0.0143
8.3600 2.7696 0.0112
8.3800 2.7762 0.0047
8.4000 2.7829 0.0138
8.4200 2.7896 0.0165
8.4400 2.7962 0.0024
8.4600 2.8028 0.0106
8.4800 2.8095 0.0171
8.5000 2.8162 0.0031
8.5200 2.8229 0.0126
8.5400 2.8296 0.0210
8.5600 2.8363 0.0030
8.5800 2.8429 0.0125
8.6000 2.8496 0.0209
8.6200 2.8562 0.0034
8.6400 2.8628 0.0194
8.6600 2.8695 0.0216
8.6800 2.8762 -0.0031
8.7000 2.8829 0.0188
8.7200 2.8895 0.0194
8.7400 2.8962 -0.0036
8.7600 2.9029 0.0179
8.7800 2.9096 0.0192
8.8000 2.9162 -0.0031
8.8200 2.9228 0.0194
8.8400 2.9294 0.0178
8.8600 2.9361 0.0071
8.8800 2.9428 0.0167
8.9000 2.9495 0.0131
8.9200 2.9562 0.0045
8.9400 2.9629 0.0265
8.9600 2.9696 0.0049
8.9800 2.9762 0.0070
9.0000 2.9828 0.0234
9.0200 2.9895 0.0092
9.0400 2.9962 0.0121
9.0600 3.0029 0.0166
9.0800 3.0096 0.0097
9.1000 3.0163 0.0130
9.1200 3.0229 0.0199
9.1400 3.0296 0.0070
9.1600 3.0363 0.0178
9.1800 3.0428 0.0127
9.2000 3.0495 0.0140
9.2200 3.0562 0.0230
9.2400 3.0629 0.0094
9.2600 3.0696 0.0079
9.2800 3.0763 0.0212
9.3000 3.0830 0.0122
9.3200 3.0896 0.0143
9.3400 3.0962 0.0191
9.3600 3.1028 0.0178
9.3800 3.1095 0.0124
9.4000 3.1162 0.0137
9.4200 3.1229 0.0203
9.4400 3.1296 0.0210
9.4600 3.1362 0.0114
9.4800 3.1429 0.0124
9.5000 3.1496 0.0203
9.5200 3.1562 0.0080
9.5400 3.1629 0.0214
9.5600 3.1695 0.0211
9.5800 3.1762 0.0114
9.6000 3.1829 0.0191
9.6200 3.1895 0.0138
9.6400 3.1962 0.0149
9.6600 3.2029 0.0264
9.6800 3.2096 0.0118
9.7000 3.2162 0.0117
9.7200 3.2228 0.0216
9.7400 3.2294 0.0117
9.7600 3.2361 0.0158
9.7800 3.2428 0.0280
9.8000 3.2496 0.0046
9.8200 3.2563 0.0176
9.8400 3.2630 0.0277
9.8600 3.2696 0.0021
9.8800 3.2762 0.0222
9.9000 3.2828 0.0277
9.9200 3.2895 0.0058
9.9400 3.2962 0.0211
9.9600 3.3029 0.0205
9.9800 3.3096 0.0079
10.0000 3.3163 0.0256
10.0200 3.3229 0.0126
10.0400 3.3296 0.0091
10.0600 3.3362 0.0260
10.0800 3.3429 0.0120
10.1000 3.3495 0.0127
10.1200 3.3562 0.0309
10.1400 3.3628 0.0100
10.1600 3.3695 0.0153
10.1800 3.3762 0.0260
10.2000 3.3829 0.0091
10.2200 3.3896 0.0180
10.2400 3.3962 0.0252
10.2600 3.4028 0.0068
10.2800 3.4094 0.0204
10.3000 3.4161 0.0248
10.3200 3.4228 0.0097
10.3400 3.4295 0.0230
10.3600 3.4362 0.0160
10.3800 3.4429 0.0090
10.4000 3.4496 0.0209
10.4200 3.4562 0.0215
10.4400 3.4628 0.0103
10.4600 3.4695 0.0191
10.4800 3.4762 0.0182
10.5000 3.4829 0.0155
10.5200 3.4896 0.0123
10.5400 3.4962 0.0132
10.5600 3.5029 0.0162
10.5800 3.5096 0.0164
10.6000 3.5163 0.0059
10.6200 3.5229 0.0208
10.6400 3.5295 0.0200
10.6600 3.5361 0.0083
10.6800 3.5428 0.0200
10.7000 3.5495 0.0124
10.7200 3.5562 0.0126
10.7400 3.5629 0.0202
10.7600 3.5696 0.0052
10.7800 3.5763 0.0160
10.8000 3.5829 0.0227
10.8200 3.5895 0.0043
10.8400 3.5961 0.0168
10.8600 3.6029 0.0208
10.8800 3.6096 0.0074
10.9000 3.6163 0.0172
10.9200 3.6229 0.0197
10.9400 3.6296 0.0054
10.9600 3.6362 0.0188
10.9800 3.6428 0.0097
11.0000 3.6494 0.0120
11.0200 3.6561 0.0259
11.0400 3.6628 0.0071
11.0600 3.6695 0.0099
11.0800 3.6762 0.0228
11.1000 3.6829 0.0089
11.1200 3.6896 0.0100
11.1400 3.6962 0.0198
11.1600 3.7028 0.0043
11.1800 3.7095 0.0113
11.2000 3.7161 0.0222
11.2200 3.7228 0.0060
11.2400 3.7296 0.0132
11.2600 3.7363 0.0179
11.2800 3.7430 0.0026
11.3000 3.7497 0.0146
11.3200 3.7563 0.0156
11.3400 3.7629 0.0100
11.3600 3.7695 0.0148
11.3800 3.7761 0.0179
11.4000 3.7829 0.0073
11.4200 3.7896 0.0157
11.4400 3.7963 0.0127
11.4600 3.8029 0.0071
11.4800 3.8096 0.0145
11.5000 3.8163 0.0110
11.5200 3.8229 0.0111
11.5400 3.8295 0.0108
11.5600 3.8362 0.0108
11.5800 3.8428 0.0133
11.6000 3.8495 0.0146
11.6200 3.8562 0.0104
11.6400 3.8629 0.0175
11.6600 3.8696 0.0138
11.6800 3.8762 0.0129
11.7000 3.8828 0.0112
11.7200 3.8894 0.0134
11.7400 3.8961 0.0160
11.7600 3.9028 0.0118
11.7800 3.9095 0.0053
11.8000 3.9162 0.0175
11.8200 3.9229 0.0134
11.8400 3.9296 0.0083
11.8600 3.9362 0.0197
11.8800 3.9428 0.0114
11.9000 3.9494 0.0064
11.9200 3.9561 0.0208
11.9400 3.9629 0.0088
11.9600 3.9696 0.0077
11.9800 3.9763 0.0212
12.0000 3.9829 0.0100
12.0200 3.9896 0.0033
12.0400 3.9963 0.0186
12.0600 4.0029 0.0144
12.0800 4.0095 0.0042
12.1000 4.0162 0.0207
12.1200 4.0229 0.0143
12.1400 4.0296 0.0063
12.1600 4.0362 0.0118
12.1800 4.0429 0.0150
12.2000 4.0496 0.0097
12.2200 4.0563 0.0143
12.2400 4.0629 0.0090
12.2600 4.0695 0.0099
12.2800 4.0761 0.0191
12.3000 4.0828 0.0132
12.3200 4.0895 0.0017
12.3400 4.0962 0.0161
12.3600 4.1029 0.0169
12.3800 4.1096 0.0059
12.4000 4.1163 0.0139
12.4200 4.1229 0.0093
12.4400 4.1295 0.0085
12.4600 4.1361 0.0197
12.4800 4.1428 0.0078
12.5000 4.1495 0.0057
12.5200 4.1562 0.0192
12.5400 4.1629 0.0099
12.5600 4.1696 0.0038
12.5800 4.1763 0.0221
12.6000 4.1829 0.0094
12.6200 4.1895 0.0022
12.6400 4.1962 0.0177
12.6600 4.2029 0.0129
12.6800 4.2095 0.0109
12.7000 4.2162 0.0118
12.7200 4.2229 0.0129
12.7400 4.2296 0.0098
12.7600 4.2363 0.0175
12.7800 4.2429 0.0065
12.8000 4.2495 0.0098
12.8200 4.2561 0.0170
12.8400 4.2628 0.0087
12.8600 4.2696 0.0112
12.8800 4.2763 0.0109
12.9000 4.2829 0.0127
12.9200 4.2896 0.0126
12.9400 4.2963 0.0102
12.9600 4.3029 0.0126
12.9800 4.3095 0.0145
13.0000 4.3162 0.0088
13.0200 4.3229 0.0145
13.0400 4.3296 0.0071
13.0600 4.3363 0.0124
13.0800 4.3429 0.0182
13.1000 4.3496 0.0084
13.1200 4.3563 0.0108
13.1400 4.3629 0.0199
13.1600 4.3695 0.0082
13.1800 4.3761 0.0149
13.2000 4.3828 0.0206
13.2200 4.3895 0.0100
13.2400 4.3962 0.0145
13.2600 4.4029 0.0153
13.2800 4.4096 0.0055
13.3000 4.4163 0.0188
13.3200 4.4229 0.0145
13.3400 4.4295 0.0024
13.3600 4.4361 0.0207
13.3800 4.4428 0.0123
13.4000 4.4496 0.0107
13.4200 4.4563 0.0183
13.4400 4.4630 0.0118
13.4600 4.4696 0.0068
13.4800 4.4763 0.0242
13.5000 4.4829 0.0075
13.5200 4.4895 0.0096
13.5400 4.4962 0.0226
13.5600 4.5029 0.0082
13.5800 4.5096 0.0140
13.6000 4.5163 0.0170
13.6200 4.5229 0.0121
13.6400 4.5296 0.0196
13.6600 4.5362 0.0109
13.6800 4.5429 0.0152
13.7000 4.5495 0.0147
13.7200 4.5561 0.0141
13.7400 4.5628 0.0129
13.7600 4.5695 0.0124
13.7800 4.5762 0.0134
13.8000 4.5829 0.0173
13.8200 4.5896 0.0160
13.8400 4.5963 0.0046
13.8600 4.6029 0.0238
13.8800 4.6095 0.0164
13.9000 4.6161 0.0068
13.9200 4.6228 0.0201
13.9400 4.6295 0.0122
13.9600 4.6362 0.0094
13.9800 4.6429 0.0206
14.0000 4.6496 0.0082
14.0200 4.6562 0.0113
14.0400 4.6629 0.0170
14.0600 4.6695 0.0106
14.0800 4.6761 0.0153
14.1000 4.6828 0.0183
14.1200 4.6896 0.0092
14.1400 4.6962 0.0144
14.1600 4.7029 0.0140
14.1800 4.7096 0.0113
14.2000 4.7163 0.0194
14.2200 4.7229 0.0088
14.2400 4.7295 0.0062
14.2600 4.7362 0.0237
14.2800 4.7428 0.0104
14.3000 4.7495 0.0076
14.3200 4.7562 0.0212
14.3400 4.7629 0.0078
14.3600 4.7696 0.0121
14.3800 4.7763 0.0157
14.4000 4.7829 0.0119
14.4200 4.7895 0.0168
14.4400 4.7961 0.0159
14.4600 4.8028 0.0101
14.4800 4.8095 0.0171
14.5000 4.8162 0.0134
14.5200 4.8229 0.0149
14.5400 4.8295 0.0156
14.5600 4.8362 0.0047
14.5800 4.8428 0.0159
14.6000 4.8494 0.0227
14.6200 4.8561 0.0062
14.6400 4.8628 0.0158
14.6600 4.8695 0.0219
14.6800 4.8762 0.0063
14.7000 4.8829 0.0159
14.7200 4.8895 0.0191
14.7400 4.8962 0.0073
14.7600 4.9029 0.0143
14.7800 4.9095 0.0134
14.8000 4.9162 0.0114
14.8200 4.9228 0.0175
14.8400 4.9295 0.0082
14.8600 4.9362 0.0138
14.8800 4.9429 0.0129
14.9000 4.9496 0.0156
14.9200 4.9563 0.0135
14.9400 4.9629 0.0115
14.9600 4.9695 0.0147
14.9800 4.9761 0.0178
15.0000 4.9828 0.0107
15.0200 4.9895 0.0178
15.0400 4.9963 0.0170
15.0600 5.0029 0.0053
15.0800 5.0096 0.0172
15.1000 5.0163 0.0198
15.1200 5.0229 0.0067
15.1400 5.0295 0.0150
15.1600 5.0362 0.0191
15.1800 5.0428 0.0054
15.2000 5.0495 0.0251
15.2200 5.0562 0.0176
15.2400 5.0629 0.0073
15.2600 5.0696 0.0165
15.2800 5.0763 0.0182
15.3000 5.0829 0.0098
15.3200 5.0895 0.0186
15.3400 5.0961 0.0086
15.3600 5.1028 0.0131
15.3800 5.1095 0.0167
15.4000 5.1162 0.0008
15.4200 5.1229 0.0214
15.4400 5.1295 0.0219
15.4600 5.1362 -0.0057
15.4800 5.1429 0.0198
15.5000 5.1495 0.0227
15.5200 5.1561 0.0024
15.5400 5.1628 0.0171
15.5600 5.1695 0.0153
15.5800 5.1762 0.0042
15.6000 5.1829 0.0229
15.6200 5.1896 0.0136
15.6400 5.1963 0.0044
15.6600 5.2029 0.0234
15.6800 5.2096 0.0068
15.7000 5.2162 0.0170
15.7200 5.2229 0.0204
15.7400 5.2296 0.0075
15.7600 5.2363 0.0114
15.7800 5.2429 0.0206
15.8000 5.2496 0.0109
15.8200 5.2563 0.0105
15.8400 5.2629 0.0195
15.8600 5.2695 0.0069
15.8800 5.2761 0.0159
15.9000 5.2828 0.0166
15.9200 5.2895 0.0096
15.9400 5.2962 0.0155
15.9600 5.3029 0.0161
15.9800 5.3096 0.0071
16.0000 5.3162 0.0164
16.0200 5.3229 0.0158
16.0400 5.3295 0.0096
16.0600 5.3361 0.0230
16.0800 5.3428 0.0185
16.1000 5.3495 0.0025
16.1200 5.3562 0.0242
16.1400 5.3629 0.0148
16.1600 5.3696 0.0081
16.1800 5.3762 0.0181
16.2000 5.3829 0.0124
16.2200 5.3895 0.0084
16.2400 5.3962 0.0217
16.2600 5.4028 0.0128
16.2800 5.4095 0.0089
16.3000 5.4162 0.0186
16.3200 5.4229 0.0155
16.3400 5.4296 0.0141
16.3600 5.4363 0.0190
16.3800 5.4429 0.0104
16.4000 5.4495 0.0169
16.4200 5.4561 0.0207
16.4400 5.4628 0.0130
16.4600 5.4695 0.0189
16.4800 5.4762 0.0136
16.5000 5.4829 0.0121
16.5200 5.4896 0.0240
16.5400 5.4963 0.0163
16.5600 5.5029 0.0065
16.5800 5.5095 0.0216
16.6000 5.5161 0.0177
16.6200 5.5228 0.0130
16.6400 5.5295 0.0220
16.6600 5.5362 0.0195
16.6800 5.5429 0.0065
16.7000 5.5496 0.0275
16.7200 5.5562 0.0210
16.7400 5.5629 0.0084
16.7600 5.5695 0.0241
16.7800 5.5762 0.0189
16.8000 5.5828 0.0128
16.8200 5.5895 0.0232
16.8400 5.5962 0.0196
16.8600 5.6029 0.0114
16.8800 5.6095 0.0188
16.9000 5.6162 0.0162
16.9200 5.6229 0.0213
16.9400 5.6295 0.0210
16.9600 5.6362 0.0155
16.9800 5.6428 0.0190
17.0000 5.6495 0.0234
17.0200 5.6563 0.0174
17.0400 5.6630 0.0239
17.0600 5.6696 0.0195
17.0800 5.6763 0.0183
17.1000 5.6829 0.0171
17.1200 5.6895 0.0210
17.1400 5.6962 0.0196
17.1600 5.7028 0.0239
17.1800 5.7095 0.0192
17.2000 5.7163 0.0169
17.2200 5.7229 0.0232
17.2400 5.7296 0.0195
17.2600 5.7363 0.0237
17.2800 5.7429 0.0184
17.3000 5.7496 0.0169
17.3200 5.7562 0.0216
17.3400 5.7628 0.0221
17.3600 5.7695 0.0181
17.3800 5.7762 0.0222
17.4000 5.7829 0.0194
17.4200 5.7896 0.0191
17.4400 5.7963 0.0201
17.4600 5.8029 0.0199
17.4800 5.8095 0.0181
17.5000 5.8161 0.0233
17.5200 5.8227 0.0193
17.5400 5.8294 0.0211
17.5600 5.8362 0.0230
17.5800 5.8429 0.0210
17.6000 5.8495 0.0209
17.6200 5.8562 0.0233
17.6400 5.8629 0.0171
17.6600 5.8695 0.0216
17.6800 5.8762 0.0233
17.7000 5.8828 0.0164
17.7200 5.8895 0.0231
