Raw Data
Time Displacement Force
(s) (mm) (N)
0.0000 0.0001 -0.7497
0.0200 0.0002 -0.7419
0.0400 0.0010 -0.7092
0.0600 0.0044 -0.6692
0.0800 0.0100 -0.6868
0.1000 0.0158 -0.6756
0.1200 0.0218 -0.6147
0.1400 0.0285 -0.5932
0.1600 0.0358 -0.5876
0.1800 0.0432 -0.5356
0.2000 0.0504 -0.5097
0.2200 0.0572 -0.4953
0.2400 0.0639 -0.4475
0.2600 0.0705 -0.4257
0.2800 0.0772 -0.4152
0.3000 0.0839 -0.3848
0.3200 0.0906 -0.3556
0.3400 0.0974 -0.3403
0.3600 0.1040 -0.3024
0.3800 0.1107 -0.2703
0.4000 0.1173 -0.2553
0.4200 0.1240 -0.2459
0.4400 0.1307 -0.2382
0.4600 0.1374 -0.2542
0.4800 0.1441 -0.2446
0.5000 0.1508 -0.2364
0.5200 0.1574 -0.2493
0.5400 0.1641 -0.2468
0.5600 0.1707 -0.2319
0.5800 0.1773 -0.2471
0.6000 0.1840 -0.2415
0.6200 0.1907 -0.2315
0.6400 0.1974 -0.2416
0.6600 0.2041 -0.2437
0.6800 0.2107 -0.2298
0.7000 0.2174 -0.2398
0.7200 0.2241 -0.2390
0.7400 0.2307 -0.2289
0.7600 0.2373 -0.2371
0.7800 0.2440 -0.2307
0.8000 0.2507 -0.2294
0.8200 0.2573 -0.2318
0.8400 0.2640 -0.2301
0.8600 0.2707 -0.2297
0.8800 0.2774 -0.2294
0.9000 0.2840 -0.2283
0.9200 0.2906 -0.2306
0.9400 0.2972 -0.2206
0.9600 0.3039 -0.2284
0.9800 0.3106 -0.2252
1.0000 0.3173 -0.2205
1.0200 0.3240 -0.2245
1.0400 0.3307 -0.2279
1.0600 0.3374 -0.2159
1.0800 0.3440 -0.2243
1.1000 0.3506 -0.2202
1.1200 0.3573 -0.2106
1.1400 0.3640 -0.2298
1.1600 0.3707 -0.2201
1.1800 0.3774 -0.2103
1.2000 0.3841 -0.2348
1.2200 0.3908 -0.2194
1.2400 0.3974 -0.2109
1.2600 0.4041 -0.2369
1.2800 0.4107 -0.2174
1.3000 0.4173 -0.2086
1.3200 0.4240 -0.2386
1.3400 0.4307 -0.2185
1.3600 0.4374 -0.2163
1.3800 0.4441 -0.2356
1.4000 0.4508 -0.2104
1.4200 0.4575 -0.2229
1.4400 0.4641 -0.2366
1.4600 0.4707 -0.2177
1.4800 0.4773 -0.2187
1.5000 0.4839 -0.2344
1.5200 0.4906 -0.2229
1.5400 0.4973 -0.2270
1.5600 0.5040 -0.2316
1.5800 0.5107 -0.2270
1.6000 0.5174 -0.2313
1.6200 0.5240 -0.2315
1.6400 0.5306 -0.2232
1.6600 0.5373 -0.2380
1.6800 0.5440 -0.2361
1.7000 0.5507 -0.2283
1.7200 0.5574 -0.2410
1.7400 0.5640 -0.2339
1.7600 0.5707 -0.2258
1.7800 0.5774 -0.2448
1.8000 0.5841 -0.2375
1.8200 0.5907 -0.2325
1.8400 0.5973 -0.2434
1.8600 0.6040 -0.2368
1.8800 0.6107 -0.2411
1.9000 0.6174 -0.2411
1.9200 0.6241 -0.2424
1.9400 0.6308 -0.2433
1.9600 0.6374 -0.2449
1.9800 0.6441 -0.2418
2.0000 0.6507 -0.2471
2.0200 0.6573 -0.2448
2.0400 0.6640 -0.2491
2.0600 0.6707 -0.2457
2.0800 0.6774 -0.2460
2.1000 0.6841 -0.2513
2.1200 0.6907 -0.2521
2.1400 0.6974 -0.2451
2.1600 0.7040 -0.2530
2.1800 0.7106 -0.2501
2.2000 0.7173 -0.2485
2.2200 0.7240 -0.2540
2.2400 0.7307 -0.2564
2.2600 0.7374 -0.2501
2.2800 0.7441 -0.2525
2.3000 0.7507 -0.2539
2.3200 0.7574 -0.2577
2.3400 0.7641 -0.2510
2.3600 0.7707 -0.2528
2.3800 0.7773 -0.2633
2.4000 0.7839 -0.2540
2.4200 0.7906 -0.2581
2.4400 0.7973 -0.2619
2.4600 0.8040 -0.2554
2.4800 0.8107 -0.2580
2.5000 0.8174 -0.2594
2.5200 0.8241 -0.2580
2.5400 0.8307 -0.2595
2.5600 0.8373 -0.2610
2.5800 0.8440 -0.2576
2.6000 0.8507 -0.2617
2.6200 0.8574 -0.2719
2.6400 0.8641 -0.2586
2.6600 0.8708 -0.2694
2.6800 0.8774 -0.2670
2.7000 0.8841 -0.2572
2.7200 0.8907 -0.2623
2.7400 0.8973 -0.2677
2.7600 0.9040 -0.2623
2.7800 0.9107 -0.2701
2.8000 0.9174 -0.2699
2.8200 0.9241 -0.2601
2.8400 0.9308 -0.2707
2.8600 0.9374 -0.2720
2.8800 0.9441 -0.2623
2.9000 0.9507 -0.2699
2.9200 0.9573 -0.2691
2.9400 0.9639 -0.2598
2.9600 0.9706 -0.2759
2.9800 0.9773 -0.2751
3.0000 0.9840 -0.2678
3.0200 0.9907 -0.2716
3.0400 0.9974 -0.2738
3.0600 1.0041 -0.2657
3.0800 1.0107 -0.2803
3.1000 1.0173 -0.2716
3.1200 1.0239 -0.2636
3.1400 1.0306 -0.2734
3.1600 1.0374 -0.2774
3.1800 1.0440 -0.2653
3.2000 1.0507 -0.2796
3.2200 1.0574 -0.2788
3.2400 1.0641 -0.2662
3.2600 1.0707 -0.2755
3.2800 1.0773 -0.2805
3.3000 1.0840 -0.2675
3.3200 1.0907 -0.2794
3.3400 1.0974 -0.2807
3.3600 1.1041 -0.2679
3.3800 1.1108 -0.2744
3.4000 1.1175 -0.2826
3.4200 1.1241 -0.2778
3.4400 1.1307 -0.2789
3.4600 1.1373 -0.2794
3.4800 1.1440 -0.2719
3.5000 1.1507 -0.2814
3.5200 1.1574 -0.2832
3.5400 1.1641 -0.2774
3.5600 1.1708 -0.2798
3.5800 1.1774 -0.2850
3.6000 1.1841 -0.2737
3.6200 1.1907 -0.2804
3.6400 1.1973 -0.2826
3.6600 1.2039 -0.2806
3.6800 1.2107 -0.2836
3.7000 1.2174 -0.2855
3.7200 1.2241 -0.2746
3.7400 1.2307 -0.2845
3.7600 1.2374 -0.2863
3.7800 1.2441 -0.2810
3.8000 1.2507 -0.2813
3.8200 1.2573 -0.2828
3.8400 1.2640 -0.2796
3.8600 1.2707 -0.2877
3.8800 1.2774 -0.2915
3.9000 1.2840 -0.2805
3.9200 1.2907 -0.2855
3.9400 1.2974 -0.2915
3.9600 1.3041 -0.2836
3.9800 1.3107 -0.2847
4.0000 1.3173 -0.2914
4.0200 1.3239 -0.2816
4.0400 1.3306 -0.2829
4.0600 1.3373 -0.2936
4.0800 1.3441 -0.2885
4.1000 1.3507 -0.2822
4.1200 1.3574 -0.3008
4.1400 1.3641 -0.2850
4.1600 1.3707 -0.2868
4.1800 1.3773 -0.2984
4.2000 1.3840 -0.2845
4.2200 1.3907 -0.2860
4.2400 1.3974 -0.2976
4.2600 1.4041 -0.2882
4.2800 1.4108 -0.2880
4.3000 1.4174 -0.2994
4.3200 1.4241 -0.2908
4.3400 1.4307 -0.2874
4.3600 1.4373 -0.3010
4.3800 1.4440 -0.2884
4.4000 1.4507 -0.2933
4.4200 1.4574 -0.2999
4.4400 1.4640 -0.2810
4.4600 1.4707 -0.2900
4.4800 1.4774 -0.3026
4.5000 1.4841 -0.2929
4.5200 1.4907 -0.2889
4.5400 1.4973 -0.3022
4.5600 1.5039 -0.2883
4.5800 1.5106 -0.2924
4.6000 1.5173 -0.3045
4.6200 1.5240 -0.2936
4.6400 1.5307 -0.2942
4.6600 1.5374 -0.2987
4.6800 1.5441 -0.2924
4.7000 1.5507 -0.2989
4.7200 1.5573 -0.3030
4.7400 1.5640 -0.2988
4.7600 1.5707 -0.2966
4.7800 1.5774 -0.3066
4.8000 1.5841 -0.3024
4.8200 1.5908 -0.3041
4.8400 1.5974 -0.3037
4.8600 1.6041 -0.2982
4.8800 1.6107 -0.2969
4.9000 1.6173 -0.3023
4.9200 1.6239 -0.3085
4.9400 1.6306 -0.3018
4.9600 1.6374 -0.3020
4.9800 1.6441 -0.3097
5.0000 1.6508 -0.2994
5.0200 1.6574 -0.3106
5.0400 1.6641 -0.3107
5.0600 1.6707 -0.2987
5.0800 1.6773 -0.3060
5.1000 1.6839 -0.3011
5.1200 1.6906 -0.3057
5.1400 1.6973 -0.3115
5.1600 1.7040 -0.3116
5.1800 1.7107 -0.3038
5.2000 1.7174 -0.3084
5.2200 1.7241 -0.3063
5.2400 1.7307 -0.3105
5.2600 1.7373 -0.3124
5.2800 1.7439 -0.3034
5.3000 1.7506 -0.3067
5.3200 1.7573 -0.3120
5.3400 1.7640 -0.3057
5.3600 1.7707 -0.3131
5.3800 1.7774 -0.3113
5.4000 1.7840 -0.3107
5.4200 1.7907 -0.3084
5.4400 1.7973 -0.3152
5.4600 1.8040 -0.3107
5.4800 1.8106 -0.3055
5.5000 1.8174 -0.3087
5.5200 1.8241 -0.3095
5.5400 1.8308 -0.3084
5.5600 1.8375 -0.3095
5.5800 1.8441 -0.3155
5.6000 1.8508 -0.3076
5.6200 1.8573 -0.3121
5.6400 1.8640 -0.3084
5.6600 1.8706 -0.3062
5.6800 1.8774 -0.3141
5.7000 1.8841 -0.3122
5.7200 1.8907 -0.3046
5.7400 1.8974 -0.3143
5.7600 1.9041 -0.3155
5.7800 1.9107 -0.3090
5.8000 1.9173 -0.3137
5.8200 1.9240 -0.3148
5.8400 1.9306 -0.3096
5.8600 1.9373 -0.3155
5.8800 1.9440 -0.3176
5.9000 1.9507 -0.3087
5.9200 1.9574 -0.3125
5.9400 1.9640 -0.3163
5.9600 1.9707 -0.3058
5.9800 1.9773 -0.3142
6.0000 1.9839 -0.3212
6.0200 1.9906 -0.3064
6.0400 1.9973 -0.3115
6.0600 2.0040 -0.3240
6.0800 2.0107 -0.3074
6.1000 2.0174 -0.3166
6.1200 2.0241 -0.3229
6.1400 2.0307 -0.3083
6.1600 2.0374 -0.3185
6.1800 2.0440 -0.3212
6.2000 2.0507 -0.3127
6.2200 2.0574 -0.3179
6.2400 2.0641 -0.3288
6.2600 2.0707 -0.3110
6.2800 2.0774 -0.3211
6.3000 2.0841 -0.3290
6.3200 2.0907 -0.3172
6.3400 2.0973 -0.3213
6.3600 2.1040 -0.3224
6.3800 2.1107 -0.3109
6.4000 2.1174 -0.3293
6.4200 2.1241 -0.3276
6.4400 2.1307 -0.3121
6.4600 2.1374 -0.3277
6.4800 2.1441 -0.3334
6.5000 2.1508 -0.3151
6.5200 2.1574 -0.3290
6.5400 2.1640 -0.3318
6.5600 2.1706 -0.3140
6.5800 2.1773 -0.3296
6.6000 2.1840 -0.3252
6.6200 2.1907 -0.3138
6.6400 2.1974 -0.3320
6.6600 2.2041 -0.3328
6.6800 2.2108 -0.3188
6.7000 2.2173 -0.3300
6.7200 2.2239 -0.3291
6.7400 2.2306 -0.3186
6.7600 2.2373 -0.3311
6.7800 2.2440 -0.3291
6.8000 2.2507 -0.3143
6.8200 2.2574 -0.3353
6.8400 2.2641 -0.3325
6.8600 2.2707 -0.3252
6.8800 2.2773 -0.3332
6.9000 2.2840 -0.3338
6.9200 2.2906 -0.3187
6.9400 2.2973 -0.3363
6.9600 2.3040 -0.3333
6.9800 2.3107 -0.3211
7.0000 2.3174 -0.3319
7.0200 2.3241 -0.3327
7.0400 2.3307 -0.3278
7.0600 2.3374 -0.3329
7.0800 2.3440 -0.3320
7.1000 2.3506 -0.3297
7.1200 2.3573 -0.3285
7.1400 2.3640 -0.3335
7.1600 2.3707 -0.3287
7.1800 2.3774 -0.3357
7.2000 2.3841 -0.3339
7.2200 2.3908 -0.3236
7.2400 2.3974 -0.3338
7.2600 2.4040 -0.3378
7.2800 2.4106 -0.3282
7.3000 2.4173 -0.3350
7.3200 2.4241 -0.3404
7.3400 2.4307 -0.3313
7.3600 2.4374 -0.3368
7.3800 2.4440 -0.3397
7.4000 2.4507 -0.3322
7.4200 2.4574 -0.3386
7.4400 2.4640 -0.3384
7.4600 2.4706 -0.3310
7.4800 2.4773 -0.3395
7.5000 2.4840 -0.3386
7.5200 2.4907 -0.3406
7.5400 2.4973 -0.3381
7.5600 2.5040 -0.3358
7.5800 2.5107 -0.3338
7.6000 2.5174 -0.3412
7.6200 2.5240 -0.3406
7.6400 2.5306 -0.3300
7.6600 2.5374 -0.3432
7.6800 2.5441 -0.3424
7.7000 2.5508 -0.3391
7.7200 2.5574 -0.3379
7.7400 2.5641 -0.3446
7.7600 2.5708 -0.3392
7.7800 2.5774 -0.3363
7.8000 2.5840 -0.3484
7.8200 2.5907 -0.3379
7.8400 2.5974 -0.3328
7.8600 2.6041 -0.3533
7.8800 2.6108 -0.3384
7.9000 2.6174 -0.3389
7.9200 2.6241 -0.3524
7.9400 2.6307 -0.3407
7.9600 2.6374 -0.3383
7.9800 2.6440 -0.3550
8.0000 2.6506 -0.3375
8.0200 2.6573 -0.3402
8.0400 2.6640 -0.3515
8.0600 2.6707 -0.3431
8.0800 2.6774 -0.3435
8.1000 2.6841 -0.3526
8.1200 2.6907 -0.3413
8.1400 2.6973 -0.3524
8.1600 2.7039 -0.3526
8.1800 2.7105 -0.3376
8.2000 2.7173 -0.3501
8.2200 2.7240 -0.3568
8.2400 2.7308 -0.3391
8.2600 2.7375 -0.3520
8.2800 2.7441 -0.3573
8.3000 2.7508 -0.3407
8.3200 2.7574 -0.3550
8.3400 2.7640 -0.3544
8.3600 2.7706 -0.3406
8.3800 2.7773 -0.3529
8.4000 2.7840 -0.3572
8.4200 2.7907 -0.3468
8.4400 2.7974 -0.3560
8.4600 2.8041 -0.3511
8.4800 2.8108 -0.3459
8.5000 2.8174 -0.3516
8.5200 2.8240 -0.3570
8.5400 2.8306 -0.3454
8.5600 2.8373 -0.3564
8.5800 2.8441 -0.3536
8.6000 2.8507 -0.3476
8.6200 2.8574 -0.3607
8.6400 2.8641 -0.3568
8.6600 2.8708 -0.3525
8.6800 2.8774 -0.3556
8.7000 2.8840 -0.3470
8.7200 2.8906 -0.3557
8.7400 2.8973 -0.3578
8.7600 2.9040 -0.3553
8.7800 2.9107 -0.3641
8.8000 2.9174 -0.3506
8.8200 2.9241 -0.3531
8.8400 2.9307 -0.3633
8.8600 2.9373 -0.3552
8.8800 2.9439 -0.3526
8.9000 2.9506 -0.3598
8.9200 2.9573 -0.3513
8.9400 2.9640 -0.3584
8.9600 2.9707 -0.3650
8.9800 2.9773 -0.3531
9.0000 2.9840 -0.3600
9.0200 2.9907 -0.3653
9.0400 2.9974 -0.3477
9.0600 3.0040 -0.3653
9.0800 3.0106 -0.3673
9.1000 3.0173 -0.3500
9.1200 3.0241 -0.3593
9.1400 3.0307 -0.3679
9.1600 3.0374 -0.3512
9.1800 3.0441 -0.3633
9.2000 3.0508 -0.3652
9.2200 3.0574 -0.3517
9.2400 3.0640 -0.3651
9.2600 3.0706 -0.3647
9.2800 3.0773 -0.3564
9.3000 3.0841 -0.3638
9.3200 3.0908 -0.3618
9.3400 3.0974 -0.3556
9.3600 3.1041 -0.3621
9.3800 3.1108 -0.3680
9.4000 3.1174 -0.3587
9.4200 3.1240 -0.3582
9.4400 3.1306 -0.3667
9.4600 3.1373 -0.3561
9.4800 3.1440 -0.3624
9.5000 3.1507 -0.3685
9.5200 3.1574 -0.3587
9.5400 3.1641 -0.3569
9.5600 3.1708 -0.3673
9.5800 3.1774 -0.3581
9.6000 3.1840 -0.3622
9.6200 3.1906 -0.3702
9.6400 3.1973 -0.3624
9.6600 3.2040 -0.3564
9.6800 3.2107 -0.3731
9.7000 3.2174 -0.3600
9.7200 3.2240 -0.3609
9.7400 3.2307 -0.3734
9.7600 3.2373 -0.3579
9.7800 3.2439 -0.3556
9.8000 3.2506 -0.3718
9.8200 3.2573 -0.3575
9.8400 3.2640 -0.3644
9.8600 3.2708 -0.3753
9.8800 3.2775 -0.3587
9.9000 3.2841 -0.3646
9.9200 3.2908 -0.3749
9.9400 3.2974 -0.3626
9.9600 3.3040 -0.3650
9.9800 3.3106 -0.3746
10.0000 3.3174 -0.3572
10.0200 3.3241 -0.3679
10.0400 3.3308 -0.3771
10.0600 3.3375 -0.3644
10.0800 3.3441 -0.3665
10.1000 3.3508 -0.3737
10.1200 3.3574 -0.3619
10.1400 3.3640 -0.3753
10.1600 3.3706 -0.3698
10.1800 3.3773 -0.3652
10.2000 3.3840 -0.3683
10.2200 3.3907 -0.3728
10.2400 3.3973 -0.3670
10.2600 3.4040 -0.3720
10.2800 3.4107 -0.3754
10.3000 3.4174 -0.3740
10.3200 3.4240 -0.3703
10.3400 3.4306 -0.3715
10.3600 3.4373 -0.3725
10.3800 3.4440 -0.3733
10.4000 3.4507 -0.3734
10.4200 3.4574 -0.3712
10.4400 3.4641 -0.3667
10.4600 3.4707 -0.3788
10.4800 3.4774 -0.3717
10.5000 3.4840 -0.3675
10.5200 3.4906 -0.3836
10.5400 3.4973 -0.3724
10.5600 3.5040 -0.3706
10.5800 3.5107 -0.3814
10.6000 3.5174 -0.3732
10.6200 3.5241 -0.3680
10.6400 3.5308 -0.3830
10.6600 3.5374 -0.3797
10.6800 3.5440 -0.3711
10.7000 3.5507 -0.3786
10.7200 3.5573 -0.3745
10.7400 3.5640 -0.3696
10.7600 3.5707 -0.3877
10.7800 3.5774 -0.3750
10.8000 3.5841 -0.3699
10.8200 3.5908 -0.3875
10.8400 3.5974 -0.3783
10.8600 3.6040 -0.3707
10.8800 3.6106 -0.3855
10.9000 3.6173 -0.3785
10.9200 3.6240 -0.3698
10.9400 3.6307 -0.3900
10.9600 3.6374 -0.3763
10.9800 3.6441 -0.3715
11.0000 3.6507 -0.3939
11.0200 3.6574 -0.3752
11.0400 3.6640 -0.3662
11.0600 3.6706 -0.3931
11.0800 3.6773 -0.3820
11.1000 3.6840 -0.3687
11.1200 3.6907 -0.3915
11.1400 3.6973 -0.3828
11.1600 3.7040 -0.3690
11.1800 3.7107 -0.3925
11.2000 3.7174 -0.3798
11.2200 3.7240 -0.3750
11.2400 3.7306 -0.3886
11.2600 3.7373 -0.3745
11.2800 3.7440 -0.3719
11.3000 3.7507 -0.3966
11.3200 3.7574 -0.3772
11.3400 3.7641 -0.3730
11.3600 3.7708 -0.3952
11.3800 3.7774 -0.3786
11.4000 3.7840 -0.3767
11.4200 3.7906 -0.3956
11.4400 3.7973 -0.3730
11.4600 3.8040 -0.3765
11.4800 3.8108 -0.3947
11.5000 3.8175 -0.3766
11.5200 3.8241 -0.3819
11.5400 3.8308 -0.3949
11.5600 3.8374 -0.3796
11.5800 3.8440 -0.3801
11.6000 3.8506 -0.3897
11.6200 3.8573 -0.3829
11.6400 3.8640 -0.3832
11.6600 3.8707 -0.3859
11.6800 3.8774 -0.3794
11.7000 3.8840 -0.3783
11.7200 3.8907 -0.3923
11.7400 3.8974 -0.3858
11.7600 3.9040 -0.3862
11.7800 3.9106 -0.3851
11.8000 3.9172 -0.3865
11.8200 3.9240 -0.3788
11.8400 3.9307 -0.3908
11.8600 3.9374 -0.3915
11.8800 3.9440 -0.3754
11.9000 3.9507 -0.3859
11.9200 3.9574 -0.3888
11.9400 3.9640 -0.3797
11.9600 3.9706 -0.3916
11.9800 3.9773 -0.3850
12.0000 3.9840 -0.3821
12.0200 3.9907 -0.3919
12.0400 3.9974 -0.3872
12.0600 4.0041 -0.3809
12.0800 4.0108 -0.3953
12.1000 4.0174 -0.3898
12.1200 4.0241 -0.3791
12.1400 4.0307 -0.3928
12.1600 4.0374 -0.3873
12.1800 4.0440 -0.3875
12.2000 4.0507 -0.3927
12.2200 4.0574 -0.3856
12.2400 4.0641 -0.3904
12.2600 4.0708 -0.3922
12.2800 4.0775 -0.3863
12.3000 4.0841 -0.3902
12.3200 4.0906 -0.3927
12.3400 4.0973 -0.3889
12.3600 4.1040 -0.3863
12.3800 4.1107 -0.3974
12.4000 4.1174 -0.3878
12.4200 4.1241 -0.3932
12.4400 4.1308 -0.3935
12.4600 4.1374 -0.3908
12.4800 4.1440 -0.3958
12.5000 4.1506 -0.3892
12.5200 4.1573 -0.3881
12.5400 4.1640 -0.3922
12.5600 4.1707 -0.3898
12.5800 4.1774 -0.3946
12.6000 4.1840 -0.3943
12.6200 4.1907 -0.3915
12.6400 4.1974 -0.3985
12.6600 4.2040 -0.3965
12.6800 4.2107 -0.3883
12.7000 4.2173 -0.3978
12.7200 4.2240 -0.3976
12.7400 4.2307 -0.3887
12.7600 4.2374 -0.4000
12.7800 4.2441 -0.3945
12.8000 4.2508 -0.3904
12.8200 4.2575 -0.3983
12.8400 4.2641 -0.3971
12.8600 4.2707 -0.3908
12.8800 4.2773 -0.4011
12.9000 4.2840 -0.3941
12.9200 4.2907 -0.3909
12.9400 4.2974 -0.3986
12.9600 4.3041 -0.3978
12.9800 4.3108 -0.3945
13.0000 4.3174 -0.4026
13.0200 4.3240 -0.3968
13.0400 4.3306 -0.3947
13.0600 4.3373 -0.3978
13.0800 4.3440 -0.4017
13.1000 4.3508 -0.3985
13.1200 4.3574 -0.4010
13.1400 4.3641 -0.3986
13.1600 4.3708 -0.3924
13.1800 4.3774 -0.4057
13.2000 4.3840 -0.4026
13.2200 4.3906 -0.3927
13.2400 4.3973 -0.4021
13.2600 4.4039 -0.4045
13.2800 4.4107 -0.3941
13.3000 4.4174 -0.4042
13.3200 4.4241 -0.4042
13.3400 4.4308 -0.3944
13.3600 4.4374 -0.4058
13.3800 4.4441 -0.4057
13.4000 4.4506 -0.3915
13.4200 4.4573 -0.4089
13.4400 4.4640 -0.4008
13.4600 4.4707 -0.3976
13.4800 4.4774 -0.4115
13.5000 4.4841 -0.4057
13.5200 4.4908 -0.4007
13.5400 4.4975 -0.4102
13.5600 4.5041 -0.3972
13.5800 4.5107 -0.4020
13.6000 4.5173 -0.4118
13.6200 4.5240 -0.3982
13.6400 4.5307 -0.4041
13.6600 4.5374 -0.4059
13.6800 4.5441 -0.4028
13.7000 4.5507 -0.4078
13.7200 4.5574 -0.4045
13.7400 4.5640 -0.4027
13.7600 4.5706 -0.4065
13.7800 4.5772 -0.4018
13.8000 4.5839 -0.4028
13.8200 4.5906 -0.4054
13.8400 4.5973 -0.4101
13.8600 4.6041 -0.4076
13.8800 4.6108 -0.4015
13.9000 4.6175 -0.4066
13.9200 4.6241 -0.4134
13.9400 4.6306 -0.3981
13.9600 4.6373 -0.4040
13.9800 4.6440 -0.4099
14.0000 4.6507 -0.4009
14.0200 4.6574 -0.4033
14.0400 4.6641 -0.4123
14.0600 4.6707 -0.3994
14.0800 4.6774 -0.4075
14.1000 4.6840 -0.4125
14.1200 4.6906 -0.3974
14.1400 4.6973 -0.4031
14.1600 4.7040 -0.4164
14.1800 4.7107 -0.3951
14.2000 4.7174 -0.4061
14.2200 4.7241 -0.4143
14.2400 4.7308 -0.3932
14.2600 4.7374 -0.4139
14.2800 4.7441 -0.4147
14.3000 4.7507 -0.3944
14.3200 4.7573 -0.4138
14.3400 4.7640 -0.4144
14.3600 4.7707 -0.3993
14.3800 4.7774 -0.4138
14.4000 4.7841 -0.4090
14.4200 4.7908 -0.4035
14.4400 4.7975 -0.4174
14.4600 4.8041 -0.4103
14.4800 4.8107 -0.4000
14.5000 4.8173 -0.4167
14.5200 4.8240 -0.4098
14.5400 4.8307 -0.4042
14.5600 4.8373 -0.4159
14.5800 4.8440 -0.4121
14.6000 4.8506 -0.3989
14.6200 4.8573 -0.4126
14.6400 4.8639 -0.4111
14.6600 4.8706 -0.4045
14.6800 4.8773 -0.4125
14.7000 4.8840 -0.4172
14.7200 4.8907 -0.4028
14.7400 4.8974 -0.4125
14.7600 4.9040 -0.4171
14.7800 4.9107 -0.4037
14.8000 4.9174 -0.4126
14.8200 4.9241 -0.4190
14.8400 4.9307 -0.4033
14.8600 4.9373 -0.4127
14.8800 4.9440 -0.4172
14.9000 4.9507 -0.4059
14.9200 4.9574 -0.4159
14.9400 4.9641 -0.4168
14.9600 4.9708 -0.4083
14.9800 4.9775 -0.4136
15.0000 4.9841 -0.4201
15.0200 4.9907 -0.4051
15.0400 4.9973 -0.4154
15.0600 5.0040 -0.4153
15.0800 5.0107 -0.4092
15.1000 5.0174 -0.4129
15.1200 5.0241 -0.4185
15.1400 5.0308 -0.4073
15.1600 5.0374 -0.4125
15.1800 5.0441 -0.4130
15.2000 5.0507 -0.4119
15.2200 5.0573 -0.4137
15.2400 5.0640 -0.4136
15.2600 5.0707 -0.4089
15.2800 5.0774 -0.4139
15.3000 5.0841 -0.4170
15.3200 5.0907 -0.4148
15.3400 5.0974 -0.4132
15.3600 5.1041 -0.4183
15.3800 5.1107 -0.4175
15.4000 5.1172 -0.4076
15.4200 5.1239 -0.4167
15.4400 5.1306 -0.4140
15.4600 5.1373 -0.4102
15.4800 5.1440 -0.4155
15.5000 5.1507 -0.4200
15.5200 5.1574 -0.4090
15.5400 5.1641 -0.4246
15.5600 5.1706 -0.4176
15.5800 5.1773 -0.4104
15.6000 5.1840 -0.4160
15.6200 5.1907 -0.4192
15.6400 5.1974 -0.4111
15.6600 5.2041 -0.4251
15.6800 5.2108 -0.4144
15.7000 5.2175 -0.4092
15.7200 5.2241 -0.4264
15.7400 5.2307 -0.4130
15.7600 5.2374 -0.4132
15.7800 5.2440 -0.4260
15.8000 5.2507 -0.4128
15.8200 5.2574 -0.4176
15.8400 5.2641 -0.4228
15.8600 5.2708 -0.4147
15.8800 5.2775 -0.4196
15.9000 5.2841 -0.4223
15.9200 5.2907 -0.4113
15.9400 5.2973 -0.4178
15.9600 5.3039 -0.4206
15.9800 5.3106 -0.4119
16.0000 5.3174 -0.4238
16.0200 5.3240 -0.4159
16.0400 5.3307 -0.4159
16.0600 5.3374 -0.4250
16.0800 5.3440 -0.4199
16.1000 5.3506 -0.4038
16.1200 5.3573 -0.4284
16.1400 5.3640 -0.4223
16.1600 5.3707 -0.4117
16.1800 5.3774 -0.4278
16.2000 5.3840 -0.4232
16.2200 5.3906 -0.4137
16.2400 5.3973 -0.4182
16.2600 5.4040 -0.4204
16.2800 5.4107 -0.4239
16.3000 5.4174 -0.4199
16.3200 5.4241 -0.4185
16.3400 5.4307 -0.4215
16.3600 5.4374 -0.4209
16.3800 5.4441 -0.4232
16.4000 5.4508 -0.4238
16.4200 5.4575 -0.4186
16.4400 5.4641 -0.4256
16.4600 5.4707 -0.4269
16.4800 5.4773 -0.4137
16.5000 5.4840 -0.4242
16.5200 5.4907 -0.4275
16.5400 5.4974 -0.4156
16.5600 5.5041 -0.4218
16.5800 5.5108 -0.4308
16.6000 5.5174 -0.4186
16.6200 5.5241 -0.4202
16.6400 5.5307 -0.4305
16.6600 5.5373 -0.4221
16.6800 5.5439 -0.4192
16.7000 5.5506 -0.4306
16.7200 5.5574 -0.4161
16.7400 5.5641 -0.4234
16.7600 5.5707 -0.4284
16.7800 5.5774 -0.4183
16.8000 5.5841 -0.4202
16.8200 5.5907 -0.4368
16.8400 5.5973 -0.4178
16.8600 5.6039 -0.4206
16.8800 5.6106 -0.4350
16.9000 5.6173 -0.4193
16.9200 5.6240 -0.4249
16.9400 5.6307 -0.4329
16.9600 5.6374 -0.4219
16.9800 5.6441 -0.4250
17.0000 5.6507 -0.4312
17.0200 5.6573 -0.4181
