Raw Data
Time Displacement Force
(s) (mm) (N)
0.0000 -0.0001 -0.2603
0.0200 -0.0001 -0.2649
0.0400 -0.0020 -0.2792
0.0600 -0.0095 -0.2769
0.0800 -0.0215 -0.2640
0.1000 -0.0342 -0.2664
0.1200 -0.0470 -0.2656
0.1400 -0.0602 -0.2689
0.1600 -0.0741 -0.2668
0.1800 -0.0882 -0.2659
0.2000 -0.1020 -0.2639
0.2200 -0.1156 -0.2676
0.2400 -0.1290 -0.2661
0.2600 -0.1423 -0.2671
0.2800 -0.1556 -0.2691
0.3000 -0.1689 -0.2668
0.3200 -0.1822 -0.2686
0.3400 -0.1956 -0.2675
0.3600 -0.2089 -0.2686
0.3800 -0.2222 -0.2661
0.4000 -0.2356 -0.2688
0.4200 -0.2489 -0.2646
0.4400 -0.2623 -0.2654
0.4600 -0.2756 -0.2666
0.4800 -0.2889 -0.2677
0.5000 -0.3023 -0.2657
0.5200 -0.3157 -0.2669
0.5400 -0.3290 -0.2631
0.5600 -0.3423 -0.2634
0.5800 -0.3557 -0.2660
0.6000 -0.3690 -0.2640
0.6200 -0.3824 -0.2639
0.6400 -0.3957 -0.2641
0.6600 -0.4090 -0.2619
0.6800 -0.4223 -0.2598
0.7000 -0.4356 -0.2611
0.7200 -0.4489 -0.2604
0.7400 -0.4622 -0.2611
0.7600 -0.4756 -0.2605
0.7800 -0.4889 -0.2582
0.8000 -0.5023 -0.2588
0.8200 -0.5156 -0.2592
0.8400 -0.5290 -0.2579
0.8600 -0.5423 -0.2551
0.8800 -0.5557 -0.2570
0.9000 -0.5690 -0.2560
0.9200 -0.5823 -0.2570
0.9400 -0.5957 -0.2571
0.9600 -0.6090 -0.2575
0.9800 -0.6224 -0.2526
1.0000 -0.6357 -0.2543
1.0200 -0.6490 -0.2528
1.0400 -0.6623 -0.2546
1.0600 -0.6756 -0.2528
1.0800 -0.6889 -0.2515
1.1000 -0.7022 -0.2502
1.1200 -0.7155 -0.2527
1.1400 -0.7289 -0.2498
1.1600 -0.7423 -0.2512
1.1800 -0.7556 -0.2516
1.2000 -0.7690 -0.2509
1.2200 -0.7823 -0.2488
1.2400 -0.7957 -0.2512
1.2600 -0.8091 -0.2483
1.2800 -0.8224 -0.2490
1.3000 -0.8357 -0.2499
1.3200 -0.8490 -0.2488
1.3400 -0.8624 -0.2482
1.3600 -0.8757 -0.2487
1.3800 -0.8890 -0.2484
1.4000 -0.9023 -0.2463
1.4200 -0.9156 -0.2495
1.4400 -0.9289 -0.2477
1.4600 -0.9422 -0.2483
1.4800 -0.9556 -0.2489
1.5000 -0.9689 -0.2478
1.5200 -0.9823 -0.2442
1.5400 -0.9956 -0.2467
1.5600 -1.0089 -0.2441
1.5800 -1.0223 -0.2447
1.6000 -1.0357 -0.2459
1.6200 -1.0491 -0.2448
1.6400 -1.0624 -0.2439
1.6600 -1.0757 -0.2441
1.6800 -1.0890 -0.2427
1.7000 -1.1024 -0.2398
1.7200 -1.1157 -0.2418
1.7400 -1.1290 -0.2421
1.7600 -1.1423 -0.2406
1.7800 -1.1556 -0.2440
1.8000 -1.1690 -0.2401
1.8200 -1.1823 -0.2391
1.8400 -1.1956 -0.2397
1.8600 -1.2090 -0.2381
1.8800 -1.2223 -0.2364
1.9000 -1.2357 -0.2405
1.9200 -1.2490 -0.2383
1.9400 -1.2623 -0.2380
1.9600 -1.2757 -0.2382
1.9800 -1.2890 -0.2366
2.0000 -1.3023 -0.2351
2.0200 -1.3156 -0.2376
2.0400 -1.3290 -0.2370
2.0600 -1.3423 -0.2357
2.0800 -1.3557 -0.2376
2.1000 -1.3690 -0.2353
2.1200 -1.3823 -0.2354
2.1400 -1.3957 -0.2372
2.1600 -1.4090 -0.2374
2.1800 -1.4223 -0.2385
2.2000 -1.4356 -0.2393
2.2200 -1.4490 -0.2388
2.2400 -1.4623 -0.2370
2.2600 -1.4756 -0.2382
2.2800 -1.4889 -0.2375
2.3000 -1.5023 -0.2375
2.3200 -1.5157 -0.2399
2.3400 -1.5291 -0.2389
2.3600 -1.5424 -0.2370
2.3800 -1.5557 -0.2378
2.4000 -1.5691 -0.2373
2.4200 -1.5824 -0.2388
2.4400 -1.5957 -0.2397
2.4600 -1.6090 -0.2391
2.4800 -1.6223 -0.2374
2.5000 -1.6356 -0.2376
2.5200 -1.6490 -0.2376
2.5400 -1.6622 -0.2348
2.5600 -1.6756 -0.2361
2.5800 -1.6889 -0.2354
2.6000 -1.7023 -0.2350
2.6200 -1.7156 -0.2365
2.6400 -1.7290 -0.2353
2.6600 -1.7423 -0.2315
2.6800 -1.7557 -0.2357
2.7000 -1.7690 -0.2332
2.7200 -1.7823 -0.2334
2.7400 -1.7956 -0.2340
2.7600 -1.8090 -0.2340
2.7800 -1.8224 -0.2331
2.8000 -1.8357 -0.2335
2.8200 -1.8490 -0.2335
2.8400 -1.8623 -0.2321
2.8600 -1.8757 -0.2352
2.8800 -1.8890 -0.2334
2.9000 -1.9023 -0.2321
2.9200 -1.9156 -0.2336
2.9400 -1.9289 -0.2328
2.9600 -1.9423 -0.2320
2.9800 -1.9556 -0.2321
3.0000 -1.9689 -0.2320
3.0200 -1.9823 -0.2302
3.0400 -1.9957 -0.2341
3.0600 -2.0090 -0.2351
3.0800 -2.0223 -0.2325
3.1000 -2.0356 -0.2321
3.1200 -2.0490 -0.2303
3.1400 -2.0623 -0.2281
3.1600 -2.0757 -0.2322
3.1800 -2.0890 -0.2315
3.2000 -2.1023 -0.2281
3.2200 -2.1157 -0.2290
3.2400 -2.1290 -0.2293
3.2600 -2.1423 -0.2267
3.2800 -2.1556 -0.2309
3.3000 -2.1690 -0.2303
3.3200 -2.1823 -0.2291
3.3400 -2.1957 -0.2292
3.3600 -2.2090 -0.2306
3.3800 -2.2223 -0.2258
3.4000 -2.2357 -0.2277
3.4200 -2.2491 -0.2273
3.4400 -2.2624 -0.2246
3.4600 -2.2756 -0.2274
3.4800 -2.2890 -0.2259
3.5000 -2.3023 -0.2240
3.5200 -2.3157 -0.2258
3.5400 -2.3290 -0.2269
3.5600 -2.3423 -0.2241
3.5800 -2.3556 -0.2245
3.6000 -2.3690 -0.2241
3.6200 -2.3823 -0.2211
3.6400 -2.3956 -0.2224
3.6600 -2.4090 -0.2217
3.6800 -2.4223 -0.2182
3.7000 -2.4357 -0.2188
3.7200 -2.4490 -0.2186
3.7400 -2.4623 -0.2168
3.7600 -2.4757 -0.2175
3.7800 -2.4891 -0.2157
3.8000 -2.5024 -0.2152
3.8200 -2.5157 -0.2148
3.8400 -2.5290 -0.2151
3.8600 -2.5424 -0.2125
3.8800 -2.5557 -0.2154
3.9000 -2.5690 -0.2147
3.9200 -2.5823 -0.2146
3.9400 -2.5956 -0.2139
3.9600 -2.6090 -0.2146
3.9800 -2.6223 -0.2143
4.0000 -2.6356 -0.2151
4.0200 -2.6489 -0.2127
4.0400 -2.6623 -0.2104
4.0600 -2.6757 -0.2119
4.0800 -2.6890 -0.2134
4.1000 -2.7023 -0.2106
4.1200 -2.7157 -0.2116
4.1400 -2.7290 -0.2117
4.1600 -2.7424 -0.2104
4.1800 -2.7556 -0.2133
4.2000 -2.7690 -0.2141
4.2200 -2.7823 -0.2130
4.2400 -2.7957 -0.2121
4.2600 -2.8090 -0.2120
4.2800 -2.8223 -0.2081
4.3000 -2.8357 -0.2115
4.3200 -2.8490 -0.2109
4.3400 -2.8623 -0.2112
4.3600 -2.8756 -0.2114
4.3800 -2.8889 -0.2139
4.4000 -2.9023 -0.2105
4.4200 -2.9156 -0.2127
4.4400 -2.9289 -0.2133
4.4600 -2.9422 -0.2109
4.4800 -2.9556 -0.2124
4.5000 -2.9690 -0.2112
4.5200 -2.9824 -0.2096
4.5400 -2.9957 -0.2123
4.5600 -3.0090 -0.2134
4.5800 -3.0224 -0.2109
4.6000 -3.0357 -0.2105
4.6200 -3.0490 -0.2100
4.6400 -3.0623 -0.2078
4.6600 -3.0756 -0.2096
4.6800 -3.0890 -0.2119
4.7000 -3.1023 -0.2120
4.7200 -3.1156 -0.2114
4.7400 -3.1289 -0.2111
4.7600 -3.1423 -0.2061
4.7800 -3.1557 -0.2088
4.8000 -3.1690 -0.2088
4.8200 -3.1823 -0.2063
4.8400 -3.1957 -0.2076
4.8600 -3.2091 -0.2067
4.8800 -3.2224 -0.2033
4.9000 -3.2357 -0.2057
4.9200 -3.2490 -0.2064
4.9400 -3.2623 -0.2026
4.9600 -3.2757 -0.2032
4.9800 -3.2890 -0.2037
5.0000 -3.3023 -0.2019
5.0200 -3.3157 -0.2022
5.0400 -3.3290 -0.2018
5.0600 -3.3423 -0.1988
5.0800 -3.3556 -0.2008
5.1000 -3.3689 -0.2005
5.1200 -3.3823 -0.1998
5.1400 -3.3956 -0.1996
5.1600 -3.4090 -0.2002
5.1800 -3.4223 -0.1972
5.2000 -3.4357 -0.1994
5.2200 -3.4490 -0.1999
5.2400 -3.4624 -0.1976
5.2600 -3.4757 -0.1979
5.2800 -3.4890 -0.1997
5.3000 -3.5024 -0.1953
5.3200 -3.5157 -0.1974
5.3400 -3.5290 -0.1970
5.3600 -3.5423 -0.1966
5.3800 -3.5557 -0.1965
5.4000 -3.5690 -0.1976
5.4200 -3.5823 -0.1955
5.4400 -3.5956 -0.1965
5.4600 -3.6089 -0.1961
5.4800 -3.6223 -0.1966
5.5000 -3.6356 -0.1964
5.5200 -3.6489 -0.1984
5.5400 -3.6623 -0.1961
5.5600 -3.6756 -0.1958
5.5800 -3.6890 -0.1955
5.6000 -3.7024 -0.1955
5.6200 -3.7157 -0.1942
5.6400 -3.7290 -0.1943
5.6600 -3.7424 -0.1929
5.6800 -3.7557 -0.1944
5.7000 -3.7690 -0.1930
5.7200 -3.7823 -0.1917
5.7400 -3.7957 -0.1922
5.7600 -3.8090 -0.1939
5.7800 -3.8223 -0.1904
5.8000 -3.8356 -0.1903
5.8200 -3.8489 -0.1925
5.8400 -3.8623 -0.1904
5.8600 -3.8756 -0.1895
5.8800 -3.8890 -0.1903
5.9000 -3.9023 -0.1876
5.9200 -3.9156 -0.1884
5.9400 -3.9290 -0.1902
5.9600 -3.9423 -0.1898
5.9800 -3.9557 -0.1897
6.0000 -3.9690 -0.1880
6.0200 -3.9823 -0.1870
6.0400 -3.9957 -0.1859
6.0600 -4.0090 -0.1880
6.0800 -4.0224 -0.1849
6.1000 -4.0357 -0.1848
6.1200 -4.0491 -0.1850
6.1400 -4.0624 -0.1847
6.1600 -4.0756 -0.1864
6.1800 -4.0889 -0.1852
6.2000 -4.1023 -0.1848
6.2200 -4.1156 -0.1854
6.2400 -4.1290 -0.1865
6.2600 -4.1423 -0.1858
6.2800 -4.1556 -0.1866
6.3000 -4.1690 -0.1880
6.3200 -4.1824 -0.1856
6.3400 -4.1957 -0.1865
6.3600 -4.2090 -0.1870
6.3800 -4.2223 -0.1852
6.4000 -4.2357 -0.1842
6.4200 -4.2490 -0.1846
6.4400 -4.2623 -0.1849
6.4600 -4.2756 -0.1865
6.4800 -4.2890 -0.1888
6.5000 -4.3023 -0.1873
6.5200 -4.3156 -0.1864
6.5400 -4.3289 -0.1861
6.5600 -4.3423 -0.1867
6.5800 -4.3556 -0.1867
6.6000 -4.3690 -0.1876
6.6200 -4.3823 -0.1866
6.6400 -4.3956 -0.1848
6.6600 -4.4090 -0.1870
6.6800 -4.4224 -0.1836
6.7000 -4.4357 -0.1846
6.7200 -4.4490 -0.1844
6.7400 -4.4624 -0.1869
6.7600 -4.4757 -0.1842
6.7800 -4.4890 -0.1864
6.8000 -4.5023 -0.1813
6.8200 -4.5156 -0.1816
6.8400 -4.5289 -0.1848
6.8600 -4.5423 -0.1832
6.8800 -4.5556 -0.1824
6.9000 -4.5689 -0.1840
6.9200 -4.5823 -0.1821
6.9400 -4.5956 -0.1813
6.9600 -4.6090 -0.1833
6.9800 -4.6223 -0.1814
7.0000 -4.6357 -0.1816
7.0200 -4.6490 -0.1815
7.0400 -4.6624 -0.1808
7.0600 -4.6757 -0.1785
7.0800 -4.6890 -0.1803
7.1000 -4.7023 -0.1778
7.1200 -4.7157 -0.1781
7.1400 -4.7290 -0.1796
7.1600 -4.7423 -0.1767
7.1800 -4.7557 -0.1756
7.2000 -4.7690 -0.1756
7.2200 -4.7824 -0.1748
7.2400 -4.7956 -0.1749
7.2600 -4.8089 -0.1748
7.2800 -4.8223 -0.1743
7.3000 -4.8356 -0.1736
7.3200 -4.8490 -0.1740
7.3400 -4.8623 -0.1730
7.3600 -4.8756 -0.1712
7.3800 -4.8890 -0.1720
7.4000 -4.9024 -0.1705
7.4200 -4.9157 -0.1698
7.4400 -4.9290 -0.1713
7.4600 -4.9423 -0.1684
7.4800 -4.9557 -0.1684
7.5000 -4.9690 -0.1703
7.5200 -4.9823 -0.1707
7.5400 -4.9956 -0.1683
7.5600 -5.0090 -0.1698
7.5800 -5.0223 -0.1680
7.6000 -5.0356 -0.1681
7.6200 -5.0489 -0.1683
7.6400 -5.0623 -0.1676
7.6600 -5.0756 -0.1656
7.6800 -5.0890 -0.1680
7.7000 -5.1023 -0.1659
7.7200 -5.1157 -0.1667
7.7400 -5.1290 -0.1689
7.7600 -5.1424 -0.1676
7.7800 -5.1557 -0.1672
7.8000 -5.1690 -0.1682
7.8200 -5.1823 -0.1682
7.8400 -5.1957 -0.1704
7.8600 -5.2090 -0.1706
7.8800 -5.2223 -0.1690
7.9000 -5.2356 -0.1678
7.9200 -5.2490 -0.1707
7.9400 -5.2623 -0.1685
7.9600 -5.2756 -0.1681
7.9800 -5.2889 -0.1685
8.0000 -5.3023 -0.1689
8.0200 -5.3157 -0.1677
8.0400 -5.3290 -0.1681
8.0600 -5.3423 -0.1667
8.0800 -5.3556 -0.1684
8.1000 -5.3690 -0.1692
8.1200 -5.3824 -0.1679
8.1400 -5.3957 -0.1674
8.1600 -5.4090 -0.1689
8.1800 -5.4223 -0.1681
8.2000 -5.4357 -0.1664
8.2200 -5.4491 -0.1692
8.2400 -5.4624 -0.1684
8.2600 -5.4757 -0.1654
8.2800 -5.4890 -0.1672
8.3000 -5.5023 -0.1652
8.3200 -5.5156 -0.1651
8.3400 -5.5289 -0.1670
8.3600 -5.5422 -0.1662
8.3800 -5.5556 -0.1634
8.4000 -5.5690 -0.1657
8.4200 -5.5823 -0.1636
8.4400 -5.5956 -0.1632
8.4600 -5.6090 -0.1626
8.4800 -5.6224 -0.1631
8.5000 -5.6357 -0.1614
8.5200 -5.6490 -0.1637
8.5400 -5.6624 -0.1615
8.5600 -5.6757 -0.1636
8.5800 -5.6891 -0.1631
8.6000 -5.7023 -0.1613
8.6200 -5.7157 -0.1602
8.6400 -5.7290 -0.1587
8.6600 -5.7423 -0.1604
8.6800 -5.7556 -0.1594
8.7000 -5.7689 -0.1612
8.7200 -5.7822 -0.1595
8.7400 -5.7956 -0.1604
8.7600 -5.8090 -0.1610
8.7800 -5.8223 -0.1592
8.8000 -5.8356 -0.1569
8.8200 -5.8490 -0.1590
8.8400 -5.8624 -0.1581
8.8600 -5.8757 -0.1570
8.8800 -5.8890 -0.1563
8.9000 -5.9024 -0.1563
8.9200 -5.9157 -0.1567
8.9400 -5.9290 -0.1585
8.9600 -5.9423 -0.1566
8.9800 -5.9557 -0.1549
9.0000 -5.9690 -0.1550
9.0200 -5.9823 -0.1568
9.0400 -5.9956 -0.1525
9.0600 -6.0089 -0.1552
9.0800 -6.0223 -0.1532
9.1000 -6.0356 -0.1538
9.1200 -6.0490 -0.1540
9.1400 -6.0623 -0.1556
9.1600 -6.0757 -0.1517
9.1800 -6.0890 -0.1527
9.2000 -6.1024 -0.1504
9.2200 -6.1157 -0.1494
9.2400 -6.1290 -0.1511
9.2600 -6.1423 -0.1523
9.2800 -6.1556 -0.1493
9.3000 -6.1690 -0.1517
9.3200 -6.1823 -0.1509
9.3400 -6.1957 -0.1509
9.3600 -6.2090 -0.1508
9.3800 -6.2224 -0.1502
9.4000 -6.2357 -0.1487
9.4200 -6.2490 -0.1504
9.4400 -6.2623 -0.1496
9.4600 -6.2756 -0.1475
9.4800 -6.2890 -0.1488
9.5000 -6.3023 -0.1497
9.5200 -6.3156 -0.1474
9.5400 -6.3290 -0.1463
9.5600 -6.3424 -0.1485
9.5800 -6.3557 -0.1466
9.6000 -6.3690 -0.1489
9.6200 -6.3824 -0.1464
9.6400 -6.3957 -0.1469
9.6600 -6.4091 -0.1463
9.6800 -6.4224 -0.1476
9.7000 -6.4357 -0.1458
9.7200 -6.4490 -0.1466
9.7400 -6.4623 -0.1450
9.7600 -6.4756 -0.1438
9.7800 -6.4889 -0.1445
9.8000 -6.5022 -0.1461
9.8200 -6.5156 -0.1450
9.8400 -6.5290 -0.1432
9.8600 -6.5423 -0.1445
9.8800 -6.5556 -0.1416
9.9000 -6.5690 -0.1440
9.9200 -6.5824 -0.1450
9.9400 -6.5957 -0.1440
9.9600 -6.6090 -0.1449
9.9800 -6.6223 -0.1439
10.0000 -6.6357 -0.1423
10.0200 -6.6490 -0.1401
10.0400 -6.6623 -0.1414
10.0600 -6.6756 -0.1400
10.0800 -6.6890 -0.1416
10.1000 -6.7024 -0.1412
10.1200 -6.7157 -0.1404
10.1400 -6.7289 -0.1405
10.1600 -6.7423 -0.1406
10.1800 -6.7556 -0.1395
10.2000 -6.7690 -0.1390
10.2200 -6.7823 -0.1382
10.2400 -6.7956 -0.1384
10.2600 -6.8090 -0.1371
10.2800 -6.8223 -0.1368
10.3000 -6.8357 -0.1353
10.3200 -6.8490 -0.1375
10.3400 -6.8623 -0.1375
10.3600 -6.8757 -0.1361
10.3800 -6.8890 -0.1365
10.4000 -6.9024 -0.1360
10.4200 -6.9157 -0.1349
10.4400 -6.9290 -0.1355
10.4600 -6.9424 -0.1367
10.4800 -6.9557 -0.1364
10.5000 -6.9689 -0.1373
10.5200 -6.9823 -0.1371
10.5400 -6.9956 -0.1372
10.5600 -7.0090 -0.1361
10.5800 -7.0223 -0.1364
10.6000 -7.0356 -0.1334
10.6200 -7.0490 -0.1350
10.6400 -7.0624 -0.1364
10.6600 -7.0757 -0.1355
10.6800 -7.0890 -0.1375
10.7000 -7.1023 -0.1377
10.7200 -7.1157 -0.1365
10.7400 -7.1290 -0.1362
10.7600 -7.1423 -0.1377
10.7800 -7.1556 -0.1383
10.8000 -7.1690 -0.1387
10.8200 -7.1823 -0.1383
10.8400 -7.1956 -0.1371
10.8600 -7.2089 -0.1368
10.8800 -7.2223 -0.1387
10.9000 -7.2356 -0.1364
10.9200 -7.2490 -0.1366
10.9400 -7.2623 -0.1372
10.9600 -7.2756 -0.1358
10.9800 -7.2890 -0.1367
11.0000 -7.3024 -0.1358
11.0200 -7.3157 -0.1354
11.0400 -7.3290 -0.1342
11.0600 -7.3423 -0.1338
11.0800 -7.3557 -0.1349
11.1000 -7.3690 -0.1334
11.1200 -7.3823 -0.1336
11.1400 -7.3956 -0.1324
11.1600 -7.4089 -0.1318
11.1800 -7.4223 -0.1332
11.2000 -7.4356 -0.1292
11.2200 -7.4489 -0.1315
11.2400 -7.4623 -0.1308
11.2600 -7.4756 -0.1302
11.2800 -7.4890 -0.1295
11.3000 -7.5023 -0.1305
11.3200 -7.5156 -0.1274
11.3400 -7.5290 -0.1298
11.3600 -7.5424 -0.1302
11.3800 -7.5557 -0.1284
11.4000 -7.5690 -0.1287
11.4200 -7.5823 -0.1289
11.4400 -7.5957 -0.1282
11.4600 -7.6090 -0.1283
11.4800 -7.6224 -0.1289
11.5000 -7.6357 -0.1283
11.5200 -7.6490 -0.1289
11.5400 -7.6624 -0.1294
11.5600 -7.6757 -0.1271
11.5800 -7.6890 -0.1281
11.6000 -7.7023 -0.1263
11.6200 -7.7156 -0.1285
11.6400 -7.7289 -0.1249
11.6600 -7.7423 -0.1267
11.6800 -7.7556 -0.1239
11.7000 -7.7689 -0.1255
11.7200 -7.7823 -0.1277
11.7400 -7.7957 -0.1266
11.7600 -7.8090 -0.1268
11.7800 -7.8223 -0.1255
11.8000 -7.8357 -0.1253
11.8200 -7.8491 -0.1243
11.8400 -7.8624 -0.1248
11.8600 -7.8757 -0.1264
11.8800 -7.8890 -0.1249
11.9000 -7.9023 -0.1244
11.9200 -7.9156 -0.1250
11.9400 -7.9289 -0.1235
11.9600 -7.9423 -0.1229
11.9800 -7.9556 -0.1246
12.0000 -7.9690 -0.1232
12.0200 -7.9823 -0.1243
12.0400 -7.9956 -0.1229
12.0600 -8.0090 -0.1216
12.0800 -8.0224 -0.1225
12.1000 -8.0357 -0.1227
12.1200 -8.0490 -0.1216
12.1400 -8.0623 -0.1245
12.1600 -8.0756 -0.1214
12.1800 -8.0890 -0.1204
12.2000 -8.1023 -0.1215
12.2200 -8.1156 -0.1219
12.2400 -8.1290 -0.1217
12.2600 -8.1423 -0.1222
12.2800 -8.1557 -0.1204
12.3000 -8.1690 -0.1195
12.3200 -8.1823 -0.1206
12.3400 -8.1956 -0.1185
12.3600 -8.2090 -0.1164
12.3800 -8.2223 -0.1192
12.4000 -8.2356 -0.1206
12.4200 -8.2490 -0.1179
12.4400 -8.2623 -0.1179
12.4600 -8.2757 -0.1162
12.4800 -8.2890 -0.1179
12.5000 -8.3023 -0.1195
12.5200 -8.3157 -0.1176
12.5400 -8.3290 -0.1151
12.5600 -8.3424 -0.1173
12.5800 -8.3557 -0.1140
12.6000 -8.3690 -0.1149
12.6200 -8.3823 -0.1147
12.6400 -8.3957 -0.1154
12.6600 -8.4089 -0.1161
12.6800 -8.4222 -0.1164
12.7000 -8.4356 -0.1137
12.7200 -8.4489 -0.1133
12.7400 -8.4623 -0.1136
12.7600 -8.4756 -0.1135
12.7800 -8.4889 -0.1128
12.8000 -8.5023 -0.1128
12.8200 -8.5157 -0.1102
12.8400 -8.5290 -0.1105
12.8600 -8.5423 -0.1109
12.8800 -8.5557 -0.1116
12.9000 -8.5690 -0.1098
12.9200 -8.5824 -0.1117
12.9400 -8.5957 -0.1115
12.9600 -8.6090 -0.1092
12.9800 -8.6223 -0.1100
13.0000 -8.6357 -0.1098
13.0200 -8.6490 -0.1090
13.0400 -8.6623 -0.1099
13.0600 -8.6756 -0.1081
13.0800 -8.6890 -0.1091
13.1000 -8.7023 -0.1104
13.1200 -8.7156 -0.1102
13.1400 -8.7290 -0.1103
13.1600 -8.7423 -0.1109
13.1800 -8.7557 -0.1102
13.2000 -8.7690 -0.1095
13.2200 -8.7823 -0.1103
13.2400 -8.7957 -0.1088
13.2600 -8.8090 -0.1082
13.2800 -8.8224 -0.1087
13.3000 -8.8357 -0.1095
13.3200 -8.8490 -0.1081
13.3400 -8.8624 -0.1080
13.3600 -8.8757 -0.1072
13.3800 -8.8890 -0.1072
13.4000 -8.9023 -0.1063
13.4200 -8.9156 -0.1094
13.4400 -8.9290 -0.1070
13.4600 -8.9423 -0.1067
13.4800 -8.9556 -0.1074
13.5000 -8.9689 -0.1065
13.5200 -8.9823 -0.1066
13.5400 -8.9957 -0.1066
13.5600 -9.0090 -0.1081
13.5800 -9.0223 -0.1092
13.6000 -9.0356 -0.1073
13.6200 -9.0490 -0.1050
13.6400 -9.0624 -0.1066
13.6600 -9.0757 -0.1071
13.6800 -9.0890 -0.1049
13.7000 -9.1024 -0.1040
13.7200 -9.1157 -0.1067
13.7400 -9.1290 -0.1069
13.7600 -9.1423 -0.1068
13.7800 -9.1556 -0.1079
13.8000 -9.1689 -0.1052
13.8200 -9.1823 -0.1054
13.8400 -9.1956 -0.1044
13.8600 -9.2089 -0.1051
13.8800 -9.2223 -0.1057
13.9000 -9.2357 -0.1036
13.9200 -9.2491 -0.1051
13.9400 -9.2624 -0.1041
13.9600 -9.2757 -0.1040
13.9800 -9.2890 -0.1033
14.0000 -9.3024 -0.1018
14.0200 -9.3157 -0.1041
14.0400 -9.3290 -0.1027
14.0600 -9.3423 -0.1031
14.0800 -9.3556 -0.1030
14.1000 -9.3689 -0.1019
14.1200 -9.3822 -0.1017
14.1400 -9.3956 -0.1014
14.1600 -9.4089 -0.1003
14.1800 -9.4223 -0.0994
14.2000 -9.4356 -0.1005
14.2200 -9.4490 -0.0991
14.2400 -9.4623 -0.0981
14.2600 -9.4757 -0.0974
14.2800 -9.4891 -0.0982
14.3000 -9.5023 -0.0992
14.3200 -9.5157 -0.0966
14.3400 -9.5290 -0.0951
14.3600 -9.5424 -0.0938
14.3800 -9.5557 -0.0940
14.4000 -9.5690 -0.0944
14.4200 -9.5824 -0.0941
14.4400 -9.5957 -0.0928
14.4600 -9.6090 -0.0930
14.4800 -9.6223 -0.0909
14.5000 -9.6356 -0.0930
14.5200 -9.6490 -0.0928
14.5400 -9.6623 -0.0922
14.5600 -9.6756 -0.0931
14.5800 -9.6889 -0.0923
14.6000 -9.7023 -0.0925
14.6200 -9.7157 -0.0918
14.6400 -9.7290 -0.0895
14.6600 -9.7423 -0.0894
14.6800 -9.7557 -0.0895
14.7000 -9.7690 -0.0883
14.7200 -9.7824 -0.0880
14.7400 -9.7957 -0.0873
14.7600 -9.8090 -0.0904
14.7800 -9.8223 -0.0889
14.8000 -9.8357 -0.0900
14.8200 -9.8490 -0.0891
14.8400 -9.8623 -0.0882
14.8600 -9.8756 -0.0914
14.8800 -9.8889 -0.0907
14.9000 -9.9023 -0.0896
14.9200 -9.9157 -0.0894
14.9400 -9.9290 -0.0904
14.9600 -9.9423 -0.0910
14.9800 -9.9557 -0.0914
15.0000 -9.9690 -0.0900
15.0200 -9.9823 -0.0880
15.0400 -9.9957 -0.0877
15.0600 -10.0090 -0.0881
15.0800 -10.0224 -0.0878
15.1000 -10.0357 -0.0898
15.1200 -10.0490 -0.0893
15.1400 -10.0623 -0.0878
15.1600 -10.0756 -0.0886
15.1800 -10.0890 -0.0884
15.2000 -10.1023 -0.0894
15.2200 -10.1156 -0.0888
15.2400 -10.1290 -0.0879
15.2600 -10.1423 -0.0871
15.2800 -10.1557 -0.0885
15.3000 -10.1690 -0.0870
15.3200 -10.1823 -0.0871
15.3400 -10.1957 -0.0862
15.3600 -10.2091 -0.0833
15.3800 -10.2224 -0.0834
15.4000 -10.2357 -0.0845
15.4200 -10.2490 -0.0856
15.4400 -10.2624 -0.0852
15.4600 -10.2757 -0.0858
15.4800 -10.2890 -0.0859
15.5000 -10.3023 -0.0859
15.5200 -10.3157 -0.0851
15.5400 -10.3290 -0.0870
15.5600 -10.3423 -0.0853
15.5800 -10.3556 -0.0843
15.6000 -10.3689 -0.0837
15.6200 -10.3823 -0.0824
15.6400 -10.3956 -0.0841
15.6600 -10.4089 -0.0826
15.6800 -10.4223 -0.0836
15.7000 -10.4357 -0.0827
15.7200 -10.4491 -0.0837
15.7400 -10.4624 -0.0826
15.7600 -10.4757 -0.0843
15.7800 -10.4890 -0.0831
15.8000 -10.5024 -0.0840
15.8200 -10.5157 -0.0819
15.8400 -10.5290 -0.0816
15.8600 -10.5423 -0.0807
15.8800 -10.5557 -0.0802
15.9000 -10.5690 -0.0787
15.9200 -10.5823 -0.0796
15.9400 -10.5956 -0.0787
15.9600 -10.6089 -0.0797
15.9800 -10.6223 -0.0778
16.0000 -10.6356 -0.0787
16.0200 -10.6489 -0.0781
16.0400 -10.6623 -0.0780
16.0600 -10.6757 -0.0781
16.0800 -10.6891 -0.0783
16.1000 -10.7024 -0.0791
16.1200 -10.7157 -0.0774
16.1400 -10.7290 -0.0773
16.1600 -10.7424 -0.0764
16.1800 -10.7557 -0.0775
16.2000 -10.7690 -0.0768
16.2200 -10.7823 -0.0745
16.2400 -10.7956 -0.0750
16.2600 -10.8090 -0.0753
16.2800 -10.8223 -0.0760
