Raw Data
Time Displacement Force
(s) (mm) (N)
0.0000 -0.0001 -0.2659
0.0200 -0.0002 -0.2700
0.0400 -0.0021 -0.2860
0.0600 -0.0097 -0.2833
0.0800 -0.0216 -0.2726
0.1000 -0.0342 -0.2745
0.1200 -0.0470 -0.2718
0.1400 -0.0604 -0.2735
0.1600 -0.0744 -0.2685
0.1800 -0.0885 -0.2686
0.2000 -0.1023 -0.2649
0.2200 -0.1158 -0.2670
0.2400 -0.1292 -0.2659
0.2600 -0.1425 -0.2643
0.2800 -0.1558 -0.2637
0.3000 -0.1691 -0.2601
0.3200 -0.1825 -0.2606
0.3400 -0.1959 -0.2556
0.3600 -0.2092 -0.2552
0.3800 -0.2225 -0.2517
0.4000 -0.2358 -0.2539
0.4200 -0.2492 -0.2512
0.4400 -0.2626 -0.2509
0.4600 -0.2759 -0.2483
0.4800 -0.2892 -0.2482
0.5000 -0.3026 -0.2446
0.5200 -0.3160 -0.2449
0.5400 -0.3293 -0.2419
0.5600 -0.3426 -0.2389
0.5800 -0.3559 -0.2362
0.6000 -0.3693 -0.2330
0.6200 -0.3826 -0.2313
0.6400 -0.3959 -0.2284
0.6600 -0.4092 -0.2272
0.6800 -0.4226 -0.2254
0.7000 -0.4359 -0.2248
0.7200 -0.4492 -0.2219
0.7400 -0.4625 -0.2190
0.7600 -0.4758 -0.2174
0.7800 -0.4892 -0.2153
0.8000 -0.5026 -0.2130
0.8200 -0.5159 -0.2116
0.8400 -0.5292 -0.2086
0.8600 -0.5426 -0.2083
0.8800 -0.5560 -0.2061
0.9000 -0.5693 -0.2055
0.9200 -0.5826 -0.2050
0.9400 -0.5959 -0.2015
0.9600 -0.6093 -0.1987
0.9800 -0.6226 -0.1952
1.0000 -0.6359 -0.1945
1.0200 -0.6492 -0.1935
1.0400 -0.6626 -0.1927
1.0600 -0.6759 -0.1925
1.0800 -0.6892 -0.1886
1.1000 -0.7025 -0.1872
1.1200 -0.7158 -0.1850
1.1400 -0.7292 -0.1842
1.1600 -0.7426 -0.1808
1.1800 -0.7559 -0.1790
1.2000 -0.7692 -0.1760
1.2200 -0.7826 -0.1729
1.2400 -0.7960 -0.1719
1.2600 -0.8093 -0.1700
1.2800 -0.8226 -0.1652
1.3000 -0.8359 -0.1634
1.3200 -0.8493 -0.1622
1.3400 -0.8627 -0.1582
1.3600 -0.8760 -0.1578
1.3800 -0.8893 -0.1550
1.4000 -0.9026 -0.1549
1.4200 -0.9159 -0.1523
1.4400 -0.9292 -0.1514
1.4600 -0.9425 -0.1467
1.4800 -0.9558 -0.1464
1.5000 -0.9692 -0.1436
1.5200 -0.9825 -0.1416
1.5400 -0.9959 -0.1387
1.5600 -1.0092 -0.1397
1.5800 -1.0226 -0.1361
1.6000 -1.0360 -0.1328
1.6200 -1.0493 -0.1316
1.6400 -1.0626 -0.1288
1.6600 -1.0759 -0.1282
1.6800 -1.0893 -0.1271
1.7000 -1.1026 -0.1235
1.7200 -1.1159 -0.1215
1.7400 -1.1292 -0.1215
1.7600 -1.1426 -0.1177
1.7800 -1.1559 -0.1150
1.8000 -1.1692 -0.1144
1.8200 -1.1825 -0.1131
1.8400 -1.1958 -0.1115
1.8600 -1.2092 -0.1091
1.8800 -1.2226 -0.1078
1.9000 -1.2359 -0.1080
1.9200 -1.2492 -0.1068
1.9400 -1.2626 -0.1048
1.9600 -1.2760 -0.1016
1.9800 -1.2893 -0.1027
2.0000 -1.3026 -0.1006
2.0200 -1.3159 -0.1012
2.0400 -1.3292 -0.1005
2.0600 -1.3426 -0.0986
2.0800 -1.3559 -0.0956
2.1000 -1.3693 -0.0980
2.1200 -1.3826 -0.0937
2.1400 -1.3959 -0.0930
2.1600 -1.4093 -0.0921
2.1800 -1.4226 -0.0911
2.2000 -1.4359 -0.0917
2.2200 -1.4492 -0.0891
2.2400 -1.4626 -0.0862
2.2600 -1.4759 -0.0848
2.2800 -1.4892 -0.0843
2.3000 -1.5026 -0.0819
2.3200 -1.5160 -0.0812
2.3400 -1.5293 -0.0808
2.3600 -1.5426 -0.0785
2.3800 -1.5560 -0.0784
2.4000 -1.5693 -0.0773
2.4200 -1.5827 -0.0768
2.4400 -1.5960 -0.0765
2.4600 -1.6093 -0.0764
2.4800 -1.6226 -0.0756
2.5000 -1.6359 -0.0743
2.5200 -1.6492 -0.0729
2.5400 -1.6625 -0.0696
2.5600 -1.6758 -0.0702
2.5800 -1.6892 -0.0674
2.6000 -1.7026 -0.0639
2.6200 -1.7159 -0.0600
2.6400 -1.7292 -0.0626
2.6600 -1.7426 -0.0603
2.6800 -1.7559 -0.0617
2.7000 -1.7693 -0.0592
2.7200 -1.7826 -0.0563
2.7400 -1.7959 -0.0530
2.7600 -1.8093 -0.0524
2.7800 -1.8226 -0.0504
2.8000 -1.8359 -0.0499
2.8200 -1.8492 -0.0498
2.8400 -1.8626 -0.0464
2.8600 -1.8759 -0.0441
2.8800 -1.8893 -0.0432
2.9000 -1.9025 -0.0393
2.9200 -1.9158 -0.0393
2.9400 -1.9292 -0.0384
2.9600 -1.9426 -0.0352
2.9800 -1.9559 -0.0339
3.0000 -1.9692 -0.0337
3.0200 -1.9825 -0.0321
3.0400 -1.9959 -0.0303
3.0600 -2.0093 -0.0308
3.0800 -2.0226 -0.0272
3.1000 -2.0359 -0.0252
3.1200 -2.0493 -0.0245
3.1400 -2.0626 -0.0217
3.1600 -2.0760 -0.0186
3.1800 -2.0893 -0.0206
3.2000 -2.1026 -0.0174
3.2200 -2.1160 -0.0163
3.2400 -2.1293 -0.0155
3.2600 -2.1426 -0.0125
3.2800 -2.1559 -0.0119
3.3000 -2.1692 -0.0113
3.3200 -2.1826 -0.0074
3.3400 -2.1959 -0.0066
3.3600 -2.2092 -0.0052
3.3800 -2.2226 -0.0035
3.4000 -2.2360 -0.0024
3.4200 -2.2493 -0.0005
3.4400 -2.2626 0.0029
3.4600 -2.2759 0.0054
3.4800 -2.2893 0.0058
3.5000 -2.3026 0.0086
3.5200 -2.3159 0.0093
3.5400 -2.3292 0.0113
3.5600 -2.3426 0.0131
3.5800 -2.3559 0.0149
3.6000 -2.3692 0.0177
3.6200 -2.3825 0.0193
3.6400 -2.3959 0.0207
3.6600 -2.4092 0.0217
3.6800 -2.4226 0.0265
3.7000 -2.4359 0.0278
3.7200 -2.4492 0.0269
3.7400 -2.4626 0.0282
3.7600 -2.4759 0.0287
3.7800 -2.4893 0.0311
3.8000 -2.5026 0.0334
3.8200 -2.5159 0.0338
3.8400 -2.5293 0.0334
3.8600 -2.5426 0.0348
3.8800 -2.5560 0.0358
3.9000 -2.5693 0.0347
3.9200 -2.5826 0.0361
3.9400 -2.5959 0.0380
3.9600 -2.6092 0.0369
3.9800 -2.6225 0.0388
4.0000 -2.6359 0.0393
4.0200 -2.6492 0.0413
4.0400 -2.6626 0.0416
4.0600 -2.6759 0.0423
4.0800 -2.6893 0.0430
4.1000 -2.7026 0.0456
4.1200 -2.7159 0.0460
4.1400 -2.7293 0.0452
4.1600 -2.7426 0.0468
4.1800 -2.7559 0.0505
4.2000 -2.7692 0.0501
4.2200 -2.7826 0.0517
4.2400 -2.7959 0.0545
4.2600 -2.8093 0.0511
4.2800 -2.8226 0.0549
4.3000 -2.8360 0.0549
4.3200 -2.8493 0.0551
4.3400 -2.8626 0.0569
4.3600 -2.8759 0.0585
4.3800 -2.8892 0.0575
4.4000 -2.9025 0.0587
4.4200 -2.9159 0.0612
4.4400 -2.9292 0.0605
4.4600 -2.9425 0.0634
4.4800 -2.9559 0.0654
4.5000 -2.9693 0.0643
4.5200 -2.9826 0.0667
4.5400 -2.9959 0.0698
4.5600 -3.0093 0.0676
4.5800 -3.0226 0.0713
4.6000 -3.0360 0.0737
4.6200 -3.0493 0.0750
4.6400 -3.0626 0.0756
4.6600 -3.0759 0.0799
4.6800 -3.0892 0.0781
4.7000 -3.1026 0.0790
4.7200 -3.1159 0.0817
4.7400 -3.1292 0.0815
4.7600 -3.1426 0.0851
4.7800 -3.1559 0.0882
4.8000 -3.1692 0.0881
4.8200 -3.1826 0.0901
4.8400 -3.1959 0.0912
4.8600 -3.2093 0.0929
4.8800 -3.2227 0.0961
4.9000 -3.2359 0.0967
4.9200 -3.2493 0.0970
4.9400 -3.2626 0.1002
4.9600 -3.2760 0.1027
4.9800 -3.2893 0.1028
5.0000 -3.3026 0.1020
5.0200 -3.3159 0.1079
5.0400 -3.3293 0.1062
5.0600 -3.3426 0.1102
5.0800 -3.3558 0.1099
5.1000 -3.3692 0.1090
5.1200 -3.3825 0.1115
5.1400 -3.3959 0.1150
5.1600 -3.4092 0.1137
5.1800 -3.4226 0.1163
5.2000 -3.4359 0.1169
5.2200 -3.4493 0.1174
5.2400 -3.4626 0.1188
5.2600 -3.4759 0.1212
5.2800 -3.4893 0.1201
5.3000 -3.5026 0.1221
5.3200 -3.5160 0.1257
5.3400 -3.5293 0.1260
5.3600 -3.5426 0.1277
5.3800 -3.5559 0.1295
5.4000 -3.5693 0.1292
5.4200 -3.5826 0.1307
5.4400 -3.5958 0.1339
5.4600 -3.6092 0.1328
5.4800 -3.6225 0.1346
5.5000 -3.6359 0.1370
5.5200 -3.6492 0.1367
5.5400 -3.6625 0.1385
5.5600 -3.6759 0.1405
5.5800 -3.6893 0.1385
5.6000 -3.7026 0.1425
5.6200 -3.7160 0.1432
5.6400 -3.7293 0.1425
5.6600 -3.7427 0.1444
5.6800 -3.7560 0.1480
5.7000 -3.7693 0.1488
5.7200 -3.7826 0.1509
5.7400 -3.7959 0.1524
5.7600 -3.8093 0.1549
5.7800 -3.8226 0.1523
5.8000 -3.8359 0.1526
5.8200 -3.8492 0.1527
5.8400 -3.8626 0.1562
5.8600 -3.8759 0.1581
5.8800 -3.8892 0.1566
5.9000 -3.9025 0.1565
5.9200 -3.9159 0.1591
5.9400 -3.9293 0.1588
5.9600 -3.9426 0.1607
5.9800 -3.9559 0.1623
6.0000 -3.9692 0.1612
6.0200 -3.9826 0.1621
6.0400 -3.9960 0.1638
6.0600 -4.0093 0.1628
6.0800 -4.0227 0.1616
6.1000 -4.0360 0.1648
6.1200 -4.0493 0.1619
6.1400 -4.0626 0.1657
6.1600 -4.0759 0.1665
6.1800 -4.0892 0.1672
6.2000 -4.1025 0.1678
6.2200 -4.1159 0.1705
6.2400 -4.1292 0.1708
6.2600 -4.1425 0.1718
6.2800 -4.1559 0.1724
6.3000 -4.1693 0.1718
6.3200 -4.1826 0.1731
6.3400 -4.1959 0.1735
6.3600 -4.2092 0.1739
6.3800 -4.2226 0.1748
6.4000 -4.2359 0.1794
6.4200 -4.2493 0.1757
6.4400 -4.2626 0.1799
6.4600 -4.2760 0.1808
6.4800 -4.2893 0.1798
6.5000 -4.3026 0.1824
6.5200 -4.3159 0.1841
6.5400 -4.3292 0.1835
6.5600 -4.3425 0.1857
6.5800 -4.3559 0.1891
6.6000 -4.3692 0.1890
6.6200 -4.3825 0.1891
6.6400 -4.3959 0.1918
6.6600 -4.4093 0.1914
6.6800 -4.4226 0.1946
6.7000 -4.4360 0.1951
6.7200 -4.4493 0.1956
6.7400 -4.4626 0.1967
6.7600 -4.4760 0.2012
6.7800 -4.4893 0.2002
6.8000 -4.5026 0.2002
6.8200 -4.5159 0.2011
6.8400 -4.5292 0.2040
6.8600 -4.5425 0.2047
6.8800 -4.5558 0.2073
6.9000 -4.5692 0.2053
6.9200 -4.5825 0.2055
6.9400 -4.5959 0.2099
6.9600 -4.6092 0.2101
6.9800 -4.6226 0.2128
7.0000 -4.6359 0.2130
7.0200 -4.6493 0.2136
7.0400 -4.6627 0.2132
7.0600 -4.6760 0.2170
7.0800 -4.6893 0.2166
7.1000 -4.7026 0.2172
7.1200 -4.7160 0.2171
7.1400 -4.7293 0.2189
7.1600 -4.7426 0.2173
7.1800 -4.7559 0.2220
7.2000 -4.7693 0.2207
7.2200 -4.7826 0.2234
7.2400 -4.7959 0.2246
7.2600 -4.8092 0.2251
7.2800 -4.8226 0.2253
7.3000 -4.8359 0.2284
7.3200 -4.8492 0.2274
7.3400 -4.8625 0.2266
7.3600 -4.8759 0.2299
7.3800 -4.8893 0.2306
7.4000 -4.9026 0.2322
7.4200 -4.9159 0.2357
7.4400 -4.9293 0.2357
7.4600 -4.9426 0.2340
7.4800 -4.9560 0.2354
7.5000 -4.9693 0.2341
7.5200 -4.9826 0.2347
7.5400 -4.9959 0.2428
7.5600 -5.0092 0.2477
7.5800 -5.0226 0.2541
7.6000 -5.0359 0.2573
7.6200 -5.0492 0.2593
7.6400 -5.0625 0.2558
7.6600 -5.0759 0.2593
7.6800 -5.0893 0.2594
7.7000 -5.1026 0.2597
7.7200 -5.1159 0.2627
7.7400 -5.1293 0.2612
7.7600 -5.1426 0.2607
7.7800 -5.1560 0.2613
7.8000 -5.1693 0.2598
7.8200 -5.1826 0.2585
7.8400 -5.1959 0.2608
7.8600 -5.2093 0.2597
7.8800 -5.2226 0.2588
7.9000 -5.2359 0.2605
7.9200 -5.2492 0.2599
7.9400 -5.2625 0.2582
7.9600 -5.2758 0.2620
7.9800 -5.2892 0.2621
8.0000 -5.3025 0.2613
8.0200 -5.3159 0.2644
8.0400 -5.3293 0.2640
8.0600 -5.3426 0.2625
8.0800 -5.3559 0.2647
8.1000 -5.3693 0.2645
8.1200 -5.3827 0.2651
8.1400 -5.3960 0.2659
8.1600 -5.4093 0.2661
8.1800 -5.4226 0.2670
8.2000 -5.4360 0.2704
8.2200 -5.4493 0.2727
8.2400 -5.4626 0.2705
8.2600 -5.4759 0.2732
8.2800 -5.4892 0.2739
8.3000 -5.5026 0.2748
8.3200 -5.5159 0.2761
8.3400 -5.5291 0.2779
8.3600 -5.5425 0.2790
8.3800 -5.5559 0.2817
8.4000 -5.5692 0.2815
8.4200 -5.5826 0.2811
8.4400 -5.5959 0.2863
8.4600 -5.6093 0.2863
8.4800 -5.6226 0.2862
8.5000 -5.6360 0.2880
8.5200 -5.6493 0.2904
8.5400 -5.6626 0.2910
8.5600 -5.6760 0.2960
8.5800 -5.6893 0.2961
8.6000 -5.7026 0.2983
8.6200 -5.7159 0.2995
8.6400 -5.7292 0.3003
8.6600 -5.7426 0.3005
8.6800 -5.7559 0.3035
8.7000 -5.7692 0.3027
8.7200 -5.7825 0.3027
8.7400 -5.7959 0.3039
8.7600 -5.8092 0.3074
8.7800 -5.8225 0.3044
8.8000 -5.8359 0.3086
8.8200 -5.8492 0.3081
8.8400 -5.8626 0.3088
8.8600 -5.8760 0.3085
8.8800 -5.8893 0.3111
8.9000 -5.9026 0.3121
8.9200 -5.9160 0.3147
8.9400 -5.9293 0.3137
8.9600 -5.9426 0.3125
8.9800 -5.9559 0.3147
9.0000 -5.9692 0.3159
9.0200 -5.9826 0.3148
9.0400 -5.9959 0.3174
9.0600 -6.0092 0.3172
9.0800 -6.0225 0.3172
9.1000 -6.0359 0.3192
9.1200 -6.0493 0.3195
9.1400 -6.0626 0.3168
9.1600 -6.0759 0.3185
9.1800 -6.0893 0.3207
9.2000 -6.1026 0.3191
9.2200 -6.1159 0.3222
9.2400 -6.1292 0.3205
9.2600 -6.1425 0.3210
9.2800 -6.1559 0.3221
9.3000 -6.1693 0.3271
9.3200 -6.1826 0.3226
9.3400 -6.1959 0.3269
9.3600 -6.2093 0.3267
9.3800 -6.2226 0.3256
9.4000 -6.2359 0.3275
9.4200 -6.2492 0.3279
9.4400 -6.2625 0.3260
9.4600 -6.2759 0.3301
9.4800 -6.2892 0.3302
9.5000 -6.3025 0.3315
9.5200 -6.3159 0.3321
9.5400 -6.3293 0.3328
9.5600 -6.3427 0.3304
9.5800 -6.3560 0.3388
9.6000 -6.3693 0.3364
9.6200 -6.3826 0.3378
9.6400 -6.3960 0.3364
9.6600 -6.4093 0.3412
9.6800 -6.4226 0.3383
9.7000 -6.4359 0.3429
9.7200 -6.4492 0.3438
9.7400 -6.4626 0.3454
9.7600 -6.4759 0.3477
9.7800 -6.4892 0.3497
9.8000 -6.5025 0.3480
9.8200 -6.5159 0.3514
9.8400 -6.5292 0.3532
9.8600 -6.5426 0.3498
9.8800 -6.5559 0.3537
9.9000 -6.5693 0.3527
9.9200 -6.5826 0.3538
9.9400 -6.5960 0.3549
9.9600 -6.6093 0.3558
9.9800 -6.6226 0.3557
10.0000 -6.6360 0.3571
10.0200 -6.6493 0.3583
10.0400 -6.6626 0.3589
10.0600 -6.6759 0.3585
10.0800 -6.6893 0.3601
10.1000 -6.7026 0.3610
10.1200 -6.7159 0.3633
10.1400 -6.7292 0.3643
10.1600 -6.7425 0.3627
10.1800 -6.7559 0.3649
10.2000 -6.7692 0.3664
10.2200 -6.7826 0.3627
10.2400 -6.7959 0.3668
10.2600 -6.8092 0.3655
10.2800 -6.8226 0.3661
10.3000 -6.8360 0.3674
10.3200 -6.8493 0.3666
10.3400 -6.8626 0.3660
10.3600 -6.8759 0.3687
10.3800 -6.8893 0.3690
10.4000 -6.9026 0.3659
10.4200 -6.9159 0.3709
10.4400 -6.9293 0.3682
10.4600 -6.9426 0.3682
10.4800 -6.9559 0.3670
10.5000 -6.9692 0.3692
10.5200 -6.9825 0.3679
10.5400 -6.9959 0.3702
10.5600 -7.0092 0.3694
10.5800 -7.0226 0.3688
10.6000 -7.0359 0.3695
10.6200 -7.0493 0.3723
10.6400 -7.0626 0.3712
10.6600 -7.0760 0.3719
10.6800 -7.0893 0.3731
10.7000 -7.1026 0.3720
10.7200 -7.1159 0.3749
10.7400 -7.1293 0.3758
10.7600 -7.1426 0.3775
10.7800 -7.1559 0.3786
10.8000 -7.1692 0.3805
10.8200 -7.1826 0.3796
10.8400 -7.1959 0.3801
10.8600 -7.2092 0.3817
10.8800 -7.2225 0.3812
10.9000 -7.2359 0.3813
10.9200 -7.2493 0.3845
10.9400 -7.2626 0.3840
10.9600 -7.2759 0.3850
10.9800 -7.2892 0.3865
11.0000 -7.3026 0.3884
11.0200 -7.3160 0.3899
11.0400 -7.3293 0.3924
11.0600 -7.3426 0.3902
11.0800 -7.3559 0.3933
11.1000 -7.3693 0.3960
11.1200 -7.3826 0.3970
11.1400 -7.3959 0.3944
11.1600 -7.4092 0.3997
11.1800 -7.4225 0.3962
11.2000 -7.4359 0.4002
11.2200 -7.4492 0.3982
11.2400 -7.4625 0.3999
11.2600 -7.4759 0.3998
11.2800 -7.4893 0.4023
11.3000 -7.5026 0.4008
11.3200 -7.5159 0.4028
11.3400 -7.5293 0.4047
11.3600 -7.5426 0.4041
11.3800 -7.5560 0.4051
11.4000 -7.5693 0.4077
11.4200 -7.5826 0.4078
11.4400 -7.5959 0.4060
11.4600 -7.6093 0.4093
11.4800 -7.6226 0.4083
11.5000 -7.6360 0.4126
11.5200 -7.6493 0.4141
11.5400 -7.6626 0.4150
11.5600 -7.6760 0.4149
11.5800 -7.6892 0.4177
11.6000 -7.7025 0.4163
11.6200 -7.7159 0.4193
11.6400 -7.7292 0.4209
11.6600 -7.7425 0.4206
11.6800 -7.7558 0.4208
11.7000 -7.7692 0.4242
11.7200 -7.7826 0.4235
11.7400 -7.7960 0.4247
11.7600 -7.8093 0.4272
11.7800 -7.8226 0.4293
11.8000 -7.8360 0.4282
11.8200 -7.8493 0.4301
11.8400 -7.8627 0.4300
11.8600 -7.8759 0.4314
11.8800 -7.8892 0.4340
11.9000 -7.9026 0.4367
11.9200 -7.9159 0.4368
11.9400 -7.9292 0.4389
11.9600 -7.9425 0.4371
11.9800 -7.9559 0.4390
12.0000 -7.9692 0.4400
12.0200 -7.9826 0.4402
12.0400 -7.9959 0.4408
12.0600 -8.0093 0.4425
12.0800 -8.0226 0.4418
12.1000 -8.0360 0.4424
12.1200 -8.0493 0.4450
12.1400 -8.0626 0.4435
12.1600 -8.0759 0.4458
12.1800 -8.0893 0.4470
12.2000 -8.1026 0.4484
12.2200 -8.1159 0.4477
12.2400 -8.1292 0.4506
12.2600 -8.1426 0.4487
12.2800 -8.1559 0.4496
12.3000 -8.1692 0.4508
12.3200 -8.1825 0.4491
12.3400 -8.1959 0.4477
12.3600 -8.2092 0.4503
12.3800 -8.2226 0.4509
12.4000 -8.2359 0.4487
12.4200 -8.2492 0.4516
12.4400 -8.2626 0.4499
12.4600 -8.2759 0.4491
12.4800 -8.2893 0.4500
12.5000 -8.3026 0.4495
12.5200 -8.3160 0.4501
12.5400 -8.3293 0.4525
12.5600 -8.3426 0.4527
12.5800 -8.3559 0.4500
12.6000 -8.3692 0.4518
12.6200 -8.3826 0.4525
12.6400 -8.3959 0.4533
12.6600 -8.4092 0.4529
12.6800 -8.4225 0.4546
12.7000 -8.4358 0.4530
12.7200 -8.4492 0.4547
12.7400 -8.4626 0.4564
12.7600 -8.4759 0.4555
12.7800 -8.4892 0.4592
12.8000 -8.5026 0.4566
12.8200 -8.5160 0.4576
12.8400 -8.5293 0.4593
12.8600 -8.5426 0.4585
12.8800 -8.5559 0.4580
12.9000 -8.5693 0.4608
12.9200 -8.5826 0.4584
12.9400 -8.5960 0.4597
12.9600 -8.6093 0.4598
12.9800 -8.6226 0.4608
13.0000 -8.6359 0.4600
13.0200 -8.6492 0.4624
13.0400 -8.6625 0.4626
13.0600 -8.6759 0.4627
13.0800 -8.6892 0.4659
13.1000 -8.7026 0.4632
13.1200 -8.7159 0.4633
13.1400 -8.7292 0.4643
13.1600 -8.7426 0.4660
13.1800 -8.7560 0.4660
13.2000 -8.7693 0.4700
13.2200 -8.7826 0.4688
13.2400 -8.7959 0.4681
13.2600 -8.8093 0.4685
13.2800 -8.8227 0.4693
13.3000 -8.8360 0.4685
13.3200 -8.8493 0.4727
13.3400 -8.8626 0.4701
13.3600 -8.8760 0.4721
13.3800 -8.8892 0.4732
13.4000 -8.9025 0.4734
13.4200 -8.9159 0.4746
13.4400 -8.9292 0.4766
13.4600 -8.9426 0.4749
13.4800 -8.9559 0.4777
13.5000 -8.9692 0.4776
13.5200 -8.9826 0.4800
13.5400 -8.9959 0.4798
13.5600 -9.0093 0.4821
13.5800 -9.0226 0.4813
13.6000 -9.0359 0.4845
13.6200 -9.0493 0.4864
13.6400 -9.0626 0.4850
13.6600 -9.0760 0.4865
13.6800 -9.0893 0.4900
13.7000 -9.1026 0.4904
13.7200 -9.1160 0.4900
13.7400 -9.1293 0.4922
13.7600 -9.1425 0.4918
13.7800 -9.1559 0.4938
13.8000 -9.1692 0.4951
13.8200 -9.1826 0.4967
13.8400 -9.1959 0.4946
13.8600 -9.2092 0.4966
13.8800 -9.2226 0.4956
13.9000 -9.2360 0.4974
13.9200 -9.2493 0.4983
13.9400 -9.2626 0.4990
13.9600 -9.2760 0.5003
13.9800 -9.2893 0.5019
14.0000 -9.3027 0.5027
14.0200 -9.3160 0.5026
14.0400 -9.3292 0.5041
14.0600 -9.3425 0.5066
14.0800 -9.3559 0.5047
14.1000 -9.3692 0.5061
14.1200 -9.3825 0.5049
14.1400 -9.3958 0.5033
14.1600 -9.4092 0.5061
14.1800 -9.4226 0.5068
14.2000 -9.4359 0.5044
14.2200 -9.4492 0.5064
14.2400 -9.4626 0.5059
14.2600 -9.4760 0.5048
14.2800 -9.4893 0.5063
14.3000 -9.5026 0.5068
14.3200 -9.5159 0.5066
14.3400 -9.5293 0.5063
14.3600 -9.5426 0.5082
14.3800 -9.5560 0.5073
14.4000 -9.5693 0.5106
14.4200 -9.5826 0.5089
14.4400 -9.5960 0.5065
14.4600 -9.6093 0.5072
14.4800 -9.6225 0.5075
14.5000 -9.6359 0.5069
14.5200 -9.6492 0.5076
14.5400 -9.6626 0.5065
14.5600 -9.6759 0.5075
14.5800 -9.6892 0.5084
14.6000 -9.7026 0.5100
14.6200 -9.7160 0.5091
14.6400 -9.7293 0.5101
14.6600 -9.7426 0.5111
14.6800 -9.7559 0.5107
14.7000 -9.7693 0.5135
14.7200 -9.7826 0.5134
14.7400 -9.7959 0.5151
14.7600 -9.8092 0.5163
14.7800 -9.8226 0.5188
14.8000 -9.8359 0.5153
14.8200 -9.8492 0.5203
14.8400 -9.8625 0.5216
14.8600 -9.8758 0.5228
14.8800 -9.8892 0.5232
14.9000 -9.9026 0.5257
14.9200 -9.9159 0.5219
14.9400 -9.9292 0.5254
14.9600 -9.9426 0.5279
14.9800 -9.9560 0.5274
15.0000 -9.9693 0.5284
15.0200 -9.9826 0.5299
15.0400 -9.9959 0.5305
15.0600 -10.0093 0.5330
15.0800 -10.0226 0.5325
15.1000 -10.0359 0.5317
15.1200 -10.0492 0.5349
15.1400 -10.0626 0.5343
15.1600 -10.0759 0.5340
15.1800 -10.0892 0.5351
15.2000 -10.1025 0.5367
15.2200 -10.1159 0.5346
15.2400 -10.1292 0.5374
15.2600 -10.1426 0.5388
15.2800 -10.1559 0.5381
15.3000 -10.1692 0.5401
15.3200 -10.1826 0.5421
15.3400 -10.1960 0.5427
15.3600 -10.2093 0.5449
15.3800 -10.2226 0.5456
15.4000 -10.2359 0.5460
15.4200 -10.2493 0.5452
15.4400 -10.2627 0.5488
15.4600 -10.2760 0.5485
15.4800 -10.2893 0.5516
15.5000 -10.3026 0.5493
15.5200 -10.3159 0.5506
15.5400 -10.3292 0.5501
15.5600 -10.3425 0.5539
15.5800 -10.3558 0.5517
15.6000 -10.3692 0.5564
15.6200 -10.3826 0.5558
15.6400 -10.3959 0.5561
15.6600 -10.4092 0.5559
15.6800 -10.4226 0.5596
15.7000 -10.4360 0.5583
15.7200 -10.4493 0.5579
15.7400 -10.4627 0.5606
15.7600 -10.4760 0.5591
15.7800 -10.4893 0.5601
15.8000 -10.5027 0.5601
15.8200 -10.5160 0.5595
15.8400 -10.5293 0.5615
15.8600 -10.5426 0.5646
15.8800 -10.5559 0.5653
15.9000 -10.5692 0.5646
15.9200 -10.5825 0.5643
15.9400 -10.5958 0.5643
15.9600 -10.6092 0.5650
15.9800 -10.6225 0.5661
16.0000 -10.6359 0.5640
16.0200 -10.6492 0.5665
16.0400 -10.6626 0.5679
16.0600 -10.6760 0.5673
16.0800 -10.6893 0.5684
16.1000 -10.7026 0.5692
16.1200 -10.7159 0.5692
16.1400 -10.7293 0.5672
16.1600 -10.7426 0.5687
16.1800 -10.7560 0.5695
16.2000 -10.7692 0.5691
16.2200 -10.7826 0.5712
16.2400 -10.7959 0.5700
16.2600 -10.8092 0.5699
16.2800 -10.8225 0.5700
16.3000 -10.8358 0.5707
16.3200 -10.8492 0.5727
16.3400 -10.8626 0.5735
16.3600 -10.8759 0.5723
16.3800 -10.8892 0.5759
16.4000 -10.9026 0.5774
16.4200 -10.9159 0.5751
16.4400 -10.9293 0.5773
16.4600 -10.9426 0.5798
16.4800 -10.9559 0.5787
16.5000 -10.9692 0.5776
16.5200 -10.9826 0.5826
16.5400 -10.9959 0.5805
16.5600 -11.0093 0.5828
16.5800 -11.0226 0.5820
16.6000 -11.0359 0.5830
16.6200 -11.0493 0.5855
16.6400 -11.0626 0.5848
16.6600 -11.0759 0.5868
16.6800 -11.0892 0.5872
16.7000 -11.1026 0.5878
16.7200 -11.1159 0.5891
16.7400 -11.1292 0.5896
16.7600 -11.1426 0.5910
16.7800 -11.1560 0.5921
16.8000 -11.1693 0.5957
