Raw Data
Time Displacement Force
(s) (mm) (N)
0.0000 0.0000 0.1651
0.0200 0.0001 0.1883
0.0400 0.0022 0.2590
0.0600 0.0099 0.2392
0.0800 0.0217 0.1677
0.1000 0.0342 0.1776
0.1200 0.0469 0.1931
0.1400 0.0604 0.1747
0.1600 0.0745 0.1827
0.1800 0.0887 0.1758
0.2000 0.1026 0.1691
0.2200 0.1162 0.1773
0.2400 0.1295 0.1714
0.2600 0.1428 0.1766
0.2800 0.1561 0.1850
0.3000 0.1695 0.1703
0.3200 0.1829 0.1697
0.3400 0.1963 0.1868
0.3600 0.2096 0.1704
0.3800 0.2229 0.1748
0.4000 0.2363 0.1846
0.4200 0.2496 0.1647
0.4400 0.2629 0.1758
0.4600 0.2762 0.1847
0.4800 0.2896 0.1645
0.5000 0.3029 0.1786
0.5200 0.3162 0.1839
0.5400 0.3295 0.1629
0.5600 0.3429 0.1786
0.5800 0.3562 0.1857
0.6000 0.3696 0.1647
0.6200 0.3829 0.1847
0.6400 0.3963 0.1822
0.6600 0.4097 0.1648
0.6800 0.4230 0.1879
0.7000 0.4363 0.1765
0.7200 0.4496 0.1698
0.7400 0.4630 0.1852
0.7600 0.4763 0.1746
0.7800 0.4896 0.1706
0.8000 0.5029 0.1820
0.8200 0.5163 0.1743
0.8400 0.5296 0.1718
0.8600 0.5430 0.1776
0.8800 0.5562 0.1729
0.9000 0.5695 0.1758
0.9200 0.5828 0.1783
0.9400 0.5962 0.1698
0.9600 0.6096 0.1736
0.9800 0.6229 0.1718
1.0000 0.6362 0.1739
1.0200 0.6496 0.1696
1.0400 0.6630 0.1650
1.0600 0.6763 0.1702
1.0800 0.6896 0.1661
1.1000 0.7029 0.1673
1.1200 0.7163 0.1693
1.1400 0.7296 0.1654
1.1600 0.7429 0.1704
1.1800 0.7562 0.1700
1.2000 0.7696 0.1648
1.2200 0.7829 0.1625
1.2400 0.7963 0.1704
1.2600 0.8096 0.1613
1.2800 0.8229 0.1681
1.3000 0.8362 0.1751
1.3200 0.8496 0.1552
1.3400 0.8629 0.1676
1.3600 0.8762 0.1747
1.3800 0.8896 0.1569
1.4000 0.9030 0.1672
1.4200 0.9163 0.1733
1.4400 0.9296 0.1564
1.4600 0.9429 0.1664
1.4800 0.9563 0.1676
1.5000 0.9697 0.1565
1.5200 0.9830 0.1684
1.5400 0.9962 0.1666
1.5600 1.0096 0.1548
1.5800 1.0229 0.1686
1.6000 1.0362 0.1653
1.6200 1.0495 0.1557
1.6400 1.0628 0.1660
1.6600 1.0762 0.1619
1.6800 1.0896 0.1534
1.7000 1.1029 0.1673
1.7200 1.1163 0.1605
1.7400 1.1296 0.1524
1.7600 1.1430 0.1626
1.7800 1.1564 0.1591
1.8000 1.1696 0.1566
1.8200 1.1829 0.1635
1.8400 1.1963 0.1627
1.8600 1.2097 0.1539
1.8800 1.2230 0.1632
1.9000 1.2363 0.1632
1.9200 1.2496 0.1566
1.9400 1.2629 0.1613
1.9600 1.2762 0.1578
1.9800 1.2895 0.1586
2.0000 1.3028 0.1617
2.0200 1.3162 0.1593
2.0400 1.3296 0.1575
2.0600 1.3429 0.1585
2.0800 1.3563 0.1572
2.1000 1.3696 0.1576
2.1200 1.3830 0.1615
2.1400 1.3963 0.1554
2.1600 1.4096 0.1580
2.1800 1.4230 0.1634
2.2000 1.4363 0.1561
2.2200 1.4496 0.1546
2.2400 1.4629 0.1625
2.2600 1.4762 0.1586
2.2800 1.4895 0.1593
2.3000 1.5029 0.1628
2.3200 1.5162 0.1542
2.3400 1.5296 0.1559
2.3600 1.5429 0.1669
2.3800 1.5563 0.1488
2.4000 1.5696 0.1521
2.4200 1.5830 0.1649
2.4400 1.5963 0.1498
2.4600 1.6096 0.1522
2.4800 1.6229 0.1628
2.5000 1.6362 0.1453
2.5200 1.6495 0.1546
2.5400 1.6628 0.1608
2.5600 1.6762 0.1453
2.5800 1.6896 0.1568
2.6000 1.7030 0.1512
2.6200 1.7163 0.1417
2.6400 1.7296 0.1583
2.6600 1.7430 0.1488
2.6800 1.7563 0.1430
2.7000 1.7696 0.1531
2.7200 1.7829 0.1480
2.7400 1.7962 0.1459
2.7600 1.8096 0.1536
2.7800 1.8229 0.1481
2.8000 1.8362 0.1484
2.8200 1.8496 0.1509
2.8400 1.8629 0.1489
2.8600 1.8763 0.1497
2.8800 1.8896 0.1535
2.9000 1.9029 0.1516
2.9200 1.9163 0.1472
2.9400 1.9297 0.1486
2.9600 1.9430 0.1496
2.9800 1.9563 0.1527
3.0000 1.9696 0.1476
3.0200 1.9830 0.1522
3.0400 1.9963 0.1453
3.0600 2.0096 0.1457
3.0800 2.0229 0.1530
3.1000 2.0362 0.1430
3.1200 2.0495 0.1462
3.1400 2.0629 0.1524
3.1600 2.0762 0.1385
3.1800 2.0896 0.1462
3.2000 2.1030 0.1473
3.2200 2.1163 0.1348
3.2400 2.1297 0.1479
3.2600 2.1430 0.1502
3.2800 2.1563 0.1357
3.3000 2.1697 0.1498
3.3200 2.1830 0.1406
3.3400 2.1963 0.1356
3.3600 2.2096 0.1535
3.3800 2.2229 0.1373
3.4000 2.2363 0.1345
3.4200 2.2495 0.1535
3.4400 2.2629 0.1315
3.4600 2.2762 0.1346
3.4800 2.2896 0.1473
3.5000 2.3029 0.1313
3.5200 2.3162 0.1412
3.5400 2.3296 0.1482
3.5600 2.3429 0.1246
3.5800 2.3563 0.1438
3.6000 2.3696 0.1415
3.6200 2.3830 0.1295
3.6400 2.3963 0.1447
3.6600 2.4097 0.1357
3.6800 2.4230 0.1295
3.7000 2.4363 0.1432
3.7200 2.4496 0.1393
3.7400 2.4630 0.1287
3.7600 2.4763 0.1429
3.7800 2.4896 0.1337
3.8000 2.5029 0.1327
3.8200 2.5162 0.1401
3.8400 2.5295 0.1330
3.8600 2.5429 0.1366
3.8800 2.5562 0.1376
3.9000 2.5696 0.1329
3.9200 2.5830 0.1407
3.9400 2.5963 0.1317
3.9600 2.6096 0.1341
3.9800 2.6229 0.1425
4.0000 2.6363 0.1304
4.0200 2.6496 0.1308
4.0400 2.6629 0.1388
4.0600 2.6763 0.1286
4.0800 2.6896 0.1352
4.1000 2.7029 0.1376
4.1200 2.7163 0.1258
4.1400 2.7296 0.1345
4.1600 2.7429 0.1349
4.1800 2.7562 0.1267
4.2000 2.7696 0.1374
4.2200 2.7829 0.1324
4.2400 2.7962 0.1260
4.2600 2.8096 0.1301
4.2800 2.8229 0.1319
4.3000 2.8363 0.1217
4.3200 2.8496 0.1340
4.3400 2.8630 0.1356
4.3600 2.8763 0.1150
4.3800 2.8897 0.1361
4.4000 2.9030 0.1314
4.4200 2.9163 0.1176
4.4400 2.9296 0.1361
4.4600 2.9429 0.1324
4.4800 2.9563 0.1195
4.5000 2.9696 0.1330
4.5200 2.9829 0.1293
4.5400 2.9962 0.1186
4.5600 3.0096 0.1345
4.5800 3.0229 0.1273
4.6000 3.0362 0.1202
4.6200 3.0496 0.1359
4.6400 3.0629 0.1253
4.6600 3.0763 0.1178
4.6800 3.0896 0.1332
4.7000 3.1029 0.1304
4.7200 3.1163 0.1215
4.7400 3.1297 0.1354
4.7600 3.1430 0.1229
4.7800 3.1563 0.1209
4.8000 3.1696 0.1329
4.8200 3.1830 0.1232
4.8400 3.1963 0.1220
4.8600 3.2096 0.1310
4.8800 3.2229 0.1205
4.9000 3.2361 0.1193
4.9200 3.2495 0.1306
4.9400 3.2628 0.1228
4.9600 3.2762 0.1185
4.9800 3.2895 0.1308
5.0000 3.3030 0.1241
5.0200 3.3163 0.1154
5.0400 3.3297 0.1288
5.0600 3.3430 0.1195
5.0800 3.3564 0.1158
5.1000 3.3697 0.1246
5.1200 3.3830 0.1171
5.1400 3.3963 0.1183
5.1600 3.4095 0.1266
5.1800 3.4229 0.1190
5.2000 3.4362 0.1126
5.2200 3.4496 0.1191
5.2400 3.4629 0.1202
5.2600 3.4762 0.1136
5.2800 3.4896 0.1197
5.3000 3.5029 0.1171
5.3200 3.5162 0.1078
5.3400 3.5296 0.1211
5.3600 3.5429 0.1174
5.3800 3.5563 0.1082
5.4000 3.5697 0.1209
5.4200 3.5830 0.1150
5.4400 3.5963 0.1105
5.4600 3.6097 0.1236
5.4800 3.6230 0.1128
5.5000 3.6363 0.1078
5.5200 3.6496 0.1244
5.5400 3.6629 0.1115
5.5600 3.6763 0.1072
5.5800 3.6896 0.1258
5.6000 3.7029 0.1132
5.6200 3.7162 0.1118
5.6400 3.7296 0.1234
5.6600 3.7429 0.1092
5.6800 3.7563 0.1139
5.7000 3.7696 0.1204
5.7200 3.7830 0.1120
5.7400 3.7963 0.1130
5.7600 3.8097 0.1158
5.7800 3.8230 0.1104
5.8000 3.8363 0.1173
5.8200 3.8496 0.1176
5.8400 3.8630 0.1068
5.8600 3.8763 0.1142
5.8800 3.8896 0.1182
5.9000 3.9030 0.1084
5.9200 3.9163 0.1136
5.9400 3.9296 0.1122
5.9600 3.9429 0.1116
5.9800 3.9562 0.1150
6.0000 3.9695 0.1114
6.0200 3.9829 0.1090
6.0400 3.9962 0.1118
6.0600 4.0096 0.1147
6.0800 4.0230 0.1048
6.1000 4.0363 0.1138
6.1200 4.0497 0.1118
6.1400 4.0630 0.1085
6.1600 4.0763 0.1116
6.1800 4.0896 0.1102
6.2000 4.1030 0.1096
6.2200 4.1163 0.1121
6.2400 4.1296 0.1109
6.2600 4.1429 0.1075
6.2800 4.1563 0.1116
6.3000 4.1696 0.1113
6.3200 4.1829 0.1031
6.3400 4.1962 0.1142
6.3600 4.2096 0.1063
6.3800 4.2229 0.1009
6.4000 4.2362 0.1095
6.4200 4.2495 0.1077
6.4400 4.2629 0.1055
6.4600 4.2763 0.1038
6.4800 4.2896 0.1024
6.5000 4.3029 0.1038
6.5200 4.3163 0.1055
6.5400 4.3297 0.1004
6.5600 4.3430 0.1002
6.5800 4.3563 0.1044
6.6000 4.3696 0.1008
6.6200 4.3829 0.1000
6.6400 4.3963 0.1036
6.6600 4.4096 0.1054
6.6800 4.4229 0.0999
6.7000 4.4362 0.0982
6.7200 4.4495 0.1060
6.7400 4.4629 0.0971
6.7600 4.4762 0.1008
6.7800 4.4895 0.1016
6.8000 4.5029 0.0965
6.8200 4.5163 0.1020
6.8400 4.5296 0.1017
6.8600 4.5430 0.0983
6.8800 4.5563 0.1007
6.9000 4.5696 0.0974
6.9200 4.5830 0.0974
6.9400 4.5963 0.0991
6.9600 4.6096 0.1026
6.9800 4.6229 0.0981
7.0000 4.6363 0.0995
7.0200 4.6496 0.0958
7.0400 4.6629 0.0972
7.0600 4.6762 0.0981
7.0800 4.6895 0.0966
7.1000 4.7029 0.0981
7.1200 4.7162 0.0965
7.1400 4.7296 0.0987
7.1600 4.7430 0.0906
7.1800 4.7564 0.0941
7.2000 4.7697 0.0997
7.2200 4.7830 0.0893
7.2400 4.7964 0.0968
7.2600 4.8097 0.0978
7.2800 4.8230 0.0914
7.3000 4.8363 0.0997
7.3200 4.8495 0.0944
7.3400 4.8628 0.0938
7.3600 4.8762 0.0973
7.3800 4.8895 0.0960
7.4000 4.9029 0.0922
7.4200 4.9162 0.1007
7.4400 4.9296 0.0964
7.4600 4.9430 0.0933
7.4800 4.9563 0.1014
7.5000 4.9696 0.0955
7.5200 4.9830 0.0953
7.5400 4.9963 0.0990
7.5600 5.0097 0.0990
7.5800 5.0230 0.0978
7.6000 5.0363 0.0971
7.6200 5.0496 0.0957
7.6400 5.0630 0.0920
7.6600 5.0763 0.1035
7.6800 5.0896 0.0939
7.7000 5.1029 0.0915
7.7200 5.1162 0.0989
7.7400 5.1296 0.0942
7.7600 5.1429 0.0940
7.7800 5.1562 0.0996
7.8000 5.1695 0.0974
7.8200 5.1829 0.0892
7.8400 5.1962 0.0971
7.8600 5.2096 0.0976
7.8800 5.2229 0.0895
7.9000 5.2363 0.0934
7.9200 5.2496 0.0944
7.9400 5.2630 0.0877
7.9600 5.2763 0.0963
7.9800 5.2896 0.0964
8.0000 5.3030 0.0858
8.0200 5.3163 0.0969
8.0400 5.3296 0.0969
8.0600 5.3429 0.0869
8.0800 5.3563 0.1013
8.1000 5.3696 0.0990
8.1200 5.3829 0.0849
8.1400 5.3962 0.1027
8.1600 5.4095 0.0956
8.1800 5.4229 0.0865
8.2000 5.4362 0.1065
8.2200 5.4496 0.0903
8.2400 5.4629 0.0859
8.2600 5.4763 0.1033
8.2800 5.4897 0.0879
8.3000 5.5030 0.0844
8.3200 5.5163 0.1079
8.3400 5.5296 0.0840
8.3600 5.5430 0.0878
8.3800 5.5563 0.1001
8.4000 5.5696 0.0844
8.4200 5.5829 0.0905
8.4400 5.5963 0.0948
8.4600 5.6096 0.0866
8.4800 5.6229 0.0911
8.5000 5.6362 0.0914
8.5200 5.6495 0.0854
8.5400 5.6629 0.0900
8.5600 5.6762 0.0878
8.5800 5.6896 0.0851
8.6000 5.7029 0.0912
8.6200 5.7163 0.0862
8.6400 5.7296 0.0862
8.6600 5.7429 0.0889
8.6800 5.7563 0.0836
8.7000 5.7696 0.0910
8.7200 5.7830 0.0908
8.7400 5.7963 0.0794
8.7600 5.8096 0.0901
8.7800 5.8229 0.0903
8.8000 5.8362 0.0792
8.8200 5.8496 0.0933
8.8400 5.8629 0.0809
8.8600 5.8762 0.0821
8.8800 5.8895 0.0880
8.9000 5.9029 0.0781
8.9200 5.9162 0.0819
8.9400 5.9296 0.0885
8.9600 5.9430 0.0803
8.9800 5.9563 0.0796
9.0000 5.9697 0.0874
9.0200 5.9830 0.0782
9.0400 5.9963 0.0810
9.0600 6.0096 0.0881
9.0800 6.0230 0.0698
9.1000 6.0363 0.0846
9.1200 6.0496 0.0804
9.1400 6.0629 0.0708
9.1600 6.0762 0.0863
9.1800 6.0896 0.0806
9.2000 6.1029 0.0717
9.2200 6.1162 0.0836
9.2400 6.1295 0.0743
9.2600 6.1429 0.0725
9.2800 6.1562 0.0840
9.3000 6.1695 0.0738
9.3200 6.1829 0.0731
9.3400 6.1963 0.0823
9.3600 6.2097 0.0669
9.3800 6.2230 0.0776
9.4000 6.2363 0.0755
9.4200 6.2496 0.0696
9.4400 6.2630 0.0763
9.4600 6.2763 0.0741
9.4800 6.2896 0.0704
9.5000 6.3029 0.0778
9.5200 6.3162 0.0753
9.5400 6.3296 0.0676
9.5600 6.3429 0.0790
9.5800 6.3562 0.0713
9.6000 6.3696 0.0734
9.6200 6.3829 0.0777
9.6400 6.3963 0.0669
9.6600 6.4096 0.0765
9.6800 6.4229 0.0759
9.7000 6.4363 0.0623
9.7200 6.4496 0.0713
9.7400 6.4629 0.0759
9.7600 6.4762 0.0688
9.7800 6.4896 0.0707
9.8000 6.5029 0.0744
9.8200 6.5163 0.0653
9.8400 6.5296 0.0692
9.8600 6.5429 0.0747
9.8800 6.5563 0.0673
9.9000 6.5697 0.0693
9.9200 6.5830 0.0718
9.9400 6.5962 0.0654
9.9600 6.6095 0.0702
9.9800 6.6229 0.0710
10.0000 6.6362 0.0672
10.0200 6.6495 0.0679
10.0400 6.6629 0.0710
10.0600 6.6763 0.0653
10.0800 6.6896 0.0669
10.1000 6.7030 0.0708
10.1200 6.7163 0.0664
10.1400 6.7296 0.0652
10.1600 6.7430 0.0686
10.1800 6.7563 0.0696
10.2000 6.7696 0.0659
10.2200 6.7829 0.0706
10.2400 6.7963 0.0669
10.2600 6.8096 0.0639
10.2800 6.8229 0.0737
10.3000 6.8362 0.0620
10.3200 6.8495 0.0685
10.3400 6.8629 0.0733
10.3600 6.8762 0.0619
10.3800 6.8896 0.0703
10.4000 6.9029 0.0747
10.4200 6.9163 0.0644
10.4400 6.9297 0.0692
10.4600 6.9430 0.0750
10.4800 6.9563 0.0636
10.5000 6.9696 0.0712
10.5200 6.9830 0.0684
10.5400 6.9963 0.0642
10.5600 7.0096 0.0762
10.5800 7.0229 0.0674
10.6000 7.0362 0.0599
10.6200 7.0496 0.0727
10.6400 7.0629 0.0693
10.6600 7.0762 0.0666
10.6800 7.0895 0.0694
10.7000 7.1029 0.0728
10.7200 7.1163 0.0606
10.7400 7.1296 0.0633
10.7600 7.1429 0.0712
10.7800 7.1562 0.0600
10.8000 7.1696 0.0625
10.8200 7.1830 0.0664
10.8400 7.1963 0.0590
10.8600 7.2096 0.0596
10.8800 7.2230 0.0678
10.9000 7.2363 0.0573
10.9200 7.2496 0.0582
10.9400 7.2629 0.0686
10.9600 7.2763 0.0575
10.9800 7.2896 0.0605
11.0000 7.3029 0.0687
11.0200 7.3162 0.0562
11.0400 7.3295 0.0552
11.0600 7.3429 0.0642
11.0800 7.3562 0.0541
11.1000 7.3696 0.0559
11.1200 7.3829 0.0622
11.1400 7.3963 0.0500
11.1600 7.4097 0.0604
11.1800 7.4230 0.0573
11.2000 7.4363 0.0485
11.2200 7.4496 0.0575
11.2400 7.4630 0.0559
11.2600 7.4763 0.0509
11.2800 7.4896 0.0582
11.3000 7.5029 0.0567
11.3200 7.5163 0.0534
11.3400 7.5296 0.0546
11.3600 7.5429 0.0568
11.3800 7.5563 0.0536
11.4000 7.5696 0.0536
11.4200 7.5829 0.0585
11.4400 7.5962 0.0554
11.4600 7.6096 0.0533
11.4800 7.6229 0.0560
11.5000 7.6363 0.0534
11.5200 7.6496 0.0534
11.5400 7.6630 0.0552
11.5600 7.6763 0.0523
11.5800 7.6896 0.0512
11.6000 7.7030 0.0558
11.6200 7.7163 0.0511
11.6400 7.7296 0.0531
11.6600 7.7429 0.0532
11.6800 7.7562 0.0487
11.7000 7.7696 0.0528
11.7200 7.7829 0.0546
11.7400 7.7962 0.0443
11.7600 7.8095 0.0518
11.7800 7.8229 0.0556
11.8000 7.8362 0.0423
11.8200 7.8496 0.0544
11.8400 7.8629 0.0540
11.8600 7.8762 0.0440
11.8800 7.8896 0.0507
11.9000 7.9029 0.0545
11.9200 7.9163 0.0428
11.9400 7.9296 0.0557
11.9600 7.9429 0.0528
11.9800 7.9563 0.0429
12.0000 7.9697 0.0507
12.0200 7.9830 0.0512
12.0400 7.9963 0.0488
12.0600 8.0096 0.0535
12.0800 8.0230 0.0513
12.1000 8.0362 0.0500
12.1200 8.0495 0.0490
12.1400 8.0628 0.0535
12.1600 8.0761 0.0470
12.1800 8.0895 0.0512
12.2000 8.1028 0.0537
12.2200 8.1162 0.0407
12.2400 8.1297 0.0500
12.2600 8.1430 0.0521
12.2800 8.1564 0.0408
12.3000 8.1697 0.0514
12.3200 8.1830 0.0524
12.3400 8.1964 0.0416
12.3600 8.2097 0.0497
12.3800 8.2229 0.0571
12.4000 8.2362 0.0428
12.4200 8.2496 0.0503
12.4400 8.2629 0.0524
12.4600 8.2762 0.0423
12.4800 8.2895 0.0545
12.5000 8.3029 0.0506
12.5200 8.3162 0.0445
12.5400 8.3296 0.0499
12.5600 8.3429 0.0538
12.5800 8.3563 0.0438
12.6000 8.3697 0.0511
12.6200 8.3830 0.0500
12.6400 8.3963 0.0464
12.6600 8.4097 0.0509
12.6800 8.4230 0.0476
12.7000 8.4363 0.0485
12.7200 8.4496 0.0481
12.7400 8.4629 0.0468
12.7600 8.4762 0.0497
12.7800 8.4896 0.0455
12.8000 8.5029 0.0446
12.8200 8.5162 0.0493
12.8400 8.5295 0.0497
12.8600 8.5428 0.0462
12.8800 8.5562 0.0497
12.9000 8.5696 0.0449
12.9200 8.5829 0.0465
12.9400 8.5963 0.0500
12.9600 8.6096 0.0424
12.9800 8.6230 0.0454
13.0000 8.6363 0.0450
13.0200 8.6496 0.0450
13.0400 8.6630 0.0459
13.0600 8.6763 0.0448
13.0800 8.6896 0.0458
13.1000 8.7030 0.0452
13.1200 8.7163 0.0427
13.1400 8.7296 0.0430
13.1600 8.7429 0.0426
13.1800 8.7562 0.0422
13.2000 8.7695 0.0408
13.2200 8.7829 0.0420
13.2400 8.7962 0.0413
13.2600 8.8096 0.0376
13.2800 8.8229 0.0386
13.3000 8.8363 0.0436
13.3200 8.8497 0.0378
13.3400 8.8630 0.0388
13.3600 8.8763 0.0389
13.3800 8.8896 0.0387
13.4000 8.9030 0.0399
13.4200 8.9163 0.0402
13.4400 8.9296 0.0362
13.4600 8.9429 0.0454
13.4800 8.9562 0.0415
13.5000 8.9696 0.0349
13.5200 8.9829 0.0437
13.5400 8.9962 0.0373
13.5600 9.0096 0.0339
13.5800 9.0229 0.0460
13.6000 9.0362 0.0383
13.6200 9.0495 0.0332
13.6400 9.0629 0.0430
13.6600 9.0762 0.0327
13.6800 9.0896 0.0318
13.7000 9.1030 0.0453
13.7200 9.1163 0.0333
13.7400 9.1296 0.0343
13.7600 9.1430 0.0422
13.7800 9.1563 0.0342
13.8000 9.1697 0.0315
13.8200 9.1830 0.0419
13.8400 9.1963 0.0356
13.8600 9.2096 0.0341
13.8800 9.2229 0.0365
13.9000 9.2362 0.0351
13.9200 9.2496 0.0338
13.9400 9.2629 0.0356
13.9600 9.2762 0.0335
13.9800 9.2896 0.0298
14.0000 9.3029 0.0330
14.0200 9.3162 0.0343
14.0400 9.3296 0.0304
14.0600 9.3430 0.0315
14.0800 9.3563 0.0317
14.1000 9.3696 0.0297
14.1200 9.3829 0.0285
14.1400 9.3963 0.0308
14.1600 9.4096 0.0289
14.1800 9.4229 0.0277
14.2000 9.4363 0.0324
14.2200 9.4496 0.0262
14.2400 9.4630 0.0290
14.2600 9.4762 0.0267
14.2800 9.4895 0.0239
14.3000 9.5028 0.0287
14.3200 9.5162 0.0262
14.3400 9.5295 0.0232
14.3600 9.5429 0.0281
14.3800 9.5563 0.0255
14.4000 9.5697 0.0221
14.4200 9.5830 0.0267
14.4400 9.5964 0.0272
14.4600 9.6097 0.0227
14.4800 9.6230 0.0282
14.5000 9.6363 0.0193
14.5200 9.6496 0.0237
14.5400 9.6629 0.0275
14.5600 9.6761 0.0236
14.5800 9.6895 0.0260
14.6000 9.7028 0.0203
14.6200 9.7162 0.0242
14.6400 9.7295 0.0286
14.6600 9.7429 0.0191
14.6800 9.7563 0.0213
14.7000 9.7696 0.0269
14.7200 9.7829 0.0178
14.7400 9.7963 0.0212
14.7600 9.8096 0.0304
14.7800 9.8230 0.0191
14.8000 9.8363 0.0231
14.8200 9.8496 0.0287
14.8400 9.8630 0.0158
14.8600 9.8763 0.0259
14.8800 9.8896 0.0241
14.9000 9.9029 0.0177
14.9200 9.9162 0.0302
14.9400 9.9296 0.0218
14.9600 9.9429 0.0159
14.9800 9.9562 0.0287
15.0000 9.9695 0.0234
15.0200 9.9829 0.0218
15.0400 9.9962 0.0253
15.0600 10.0096 0.0201
15.0800 10.0229 0.0202
15.1000 10.0363 0.0292
15.1200 10.0496 0.0141
15.1400 10.0630 0.0251
15.1600 10.0763 0.0256
15.1800 10.0896 0.0155
15.2000 10.1030 0.0264
15.2200 10.1163 0.0213
15.2400 10.1297 0.0210
15.2600 10.1430 0.0222
15.2800 10.1563 0.0180
15.3000 10.1696 0.0229
15.3200 10.1830 0.0201
15.3400 10.1963 0.0217
15.3600 10.2095 0.0224
15.3800 10.2228 0.0256
15.4000 10.2362 0.0178
15.4200 10.2496 0.0167
15.4400 10.2629 0.0216
15.4600 10.2762 0.0176
15.4800 10.2896 0.0206
15.5000 10.3030 0.0133
15.5200 10.3163 0.0144
15.5400 10.3297 0.0213
15.5600 10.3430 0.0217
15.5800 10.3563 0.0138
15.6000 10.3697 0.0213
15.6200 10.3829 0.0215
15.6400 10.3962 0.0143
15.6600 10.4096 0.0230
15.6800 10.4229 0.0142
15.7000 10.4362 0.0140
15.7200 10.4496 0.0221
15.7400 10.4629 0.0153
15.7600 10.4762 0.0139
15.7800 10.4896 0.0238
15.8000 10.5029 0.0156
15.8200 10.5162 0.0162
15.8400 10.5296 0.0253
15.8600 10.5429 0.0114
15.8800 10.5563 0.0186
15.9000 10.5696 0.0259
15.9200 10.5829 0.0126
15.9400 10.5963 0.0204
15.9600 10.6097 0.0246
15.9800 10.6230 0.0108
16.0000 10.6363 0.0240
16.0200 10.6496 0.0222
16.0400 10.6629 0.0120
16.0600 10.6762 0.0252
16.0800 10.6895 0.0233
16.1000 10.7029 0.0094
16.1200 10.7162 0.0274
16.1400 10.7296 0.0238
16.1600 10.7429 0.0086
16.1800 10.7562 0.0256
16.2000 10.7696 0.0210
16.2200 10.7830 0.0150
16.2400 10.7963 0.0236
16.2600 10.8096 0.0163
16.2800 10.8229 0.0151
16.3000 10.8363 0.0260
16.3200 10.8497 0.0172
16.3400 10.8630 0.0208
16.3600 10.8763 0.0229
16.3800 10.8896 0.0181
16.4000 10.9029 0.0186
16.4200 10.9163 0.0192
16.4400 10.9296 0.0134
16.4600 10.9429 0.0194
16.4800 10.9562 0.0196
16.5000 10.9695 0.0130
16.5200 10.9829 0.0225
16.5400 10.9962 0.0203
16.5600 11.0096 0.0126
16.5800 11.0230 0.0186
16.6000 11.0363 0.0131
16.6200 11.0496 0.0143
16.6400 11.0630 0.0195
16.6600 11.0763 0.0151
16.6800 11.0897 0.0163
16.7000 11.1029 0.0191
16.7200 11.1162 0.0151
16.7400 11.1295 0.0175
16.7600 11.1429 0.0184
16.7800 11.1562 0.0113
16.8000 11.1696 0.0177
16.8200 11.1829 0.0169
16.8400 11.1963 0.0121
16.8600 11.2096 0.0192
16.8800 11.2230 0.0148
16.9000 11.2363 0.0166
16.9200 11.2496 0.0219
16.9400 11.2629 0.0060
16.9600 11.2762 0.0164
16.9800 11.2895 0.0207
17.0000 11.3029 0.0087
17.0200 11.3162 0.0172
17.0400 11.3296 0.0179
17.0600 11.3430 0.0085
17.0800 11.3563 0.0157
17.1000 11.3696 0.0169
17.1200 11.3830 0.0071
17.1400 11.3963 0.0140
17.1600 11.4096 0.0134
17.1800 11.4229 0.0068
17.2000 11.4362 0.0199
17.2200 11.4496 0.0098
17.2400 11.4629 0.0084
17.2600 11.4762 0.0198
17.2800 11.4896 0.0099
17.3000 11.5029 0.0069
17.3200 11.5163 0.0192
17.3400 11.5296 0.0015
17.3600 11.5429 0.0094
17.3800 11.5563 0.0179
17.4000 11.5696 0.0058
17.4200 11.5830 0.0115
17.4400 11.5963 0.0155
17.4600 11.6096 0.0060
17.4800 11.6229 0.0122
17.5000 11.6363 0.0093
17.5200 11.6496 0.0069
17.5400 11.6629 0.0135
17.5600 11.6762 0.0095
17.5800 11.6895 0.0067
17.6000 11.7029 0.0116
17.6200 11.7162 0.0058
17.6400 11.7296 0.0114
