Raw Data
Time Displacement Force
(s) (mm) (N)
0.0000 0.0000 0.5362
0.0200 0.0000 0.5538
0.0400 0.0010 0.5921
0.0600 0.0046 0.6106
0.0800 0.0101 0.6052
0.1000 0.0158 0.6401
0.1200 0.0219 0.6872
0.1400 0.0288 0.7120
0.1600 0.0362 0.7246
0.1800 0.0437 0.7392
0.2000 0.0508 0.7271
0.2200 0.0577 0.7285
0.2400 0.0643 0.7409
0.2600 0.0708 0.7319
0.2800 0.0775 0.7413
0.3000 0.0843 0.7408
0.3200 0.0910 0.7273
0.3400 0.0977 0.7413
0.3600 0.1044 0.7363
0.3800 0.1111 0.7305
0.4000 0.1178 0.7490
0.4200 0.1244 0.7297
0.4400 0.1310 0.7335
0.4600 0.1377 0.7413
0.4800 0.1444 0.7291
0.5000 0.1511 0.7369
0.5200 0.1577 0.7414
0.5400 0.1644 0.7230
0.5600 0.1711 0.7372
0.5800 0.1778 0.7351
0.6000 0.1844 0.7284
0.6200 0.1910 0.7392
0.6400 0.1976 0.7374
0.6600 0.2043 0.7271
0.6800 0.2111 0.7412
0.7000 0.2178 0.7307
0.7200 0.2244 0.7343
0.7400 0.2311 0.7373
0.7600 0.2378 0.7319
0.7800 0.2444 0.7368
0.8000 0.2510 0.7353
0.8200 0.2576 0.7343
0.8400 0.2643 0.7349
0.8600 0.2710 0.7329
0.8800 0.2777 0.7288
0.9000 0.2844 0.7338
0.9200 0.2911 0.7305
0.9400 0.2977 0.7317
0.9600 0.3044 0.7340
0.9800 0.3110 0.7319
1.0000 0.3176 0.7289
1.0200 0.3243 0.7314
1.0400 0.3310 0.7247
1.0600 0.3377 0.7326
1.0800 0.3444 0.7289
1.1000 0.3511 0.7245
1.1200 0.3578 0.7243
1.1400 0.3644 0.7261
1.1600 0.3710 0.7233
1.1800 0.3777 0.7266
1.2000 0.3844 0.7235
1.2200 0.3911 0.7191
1.2400 0.3978 0.7232
1.2600 0.4045 0.7247
1.2800 0.4111 0.7194
1.3000 0.4178 0.7231
1.3200 0.4244 0.7170
1.3400 0.4310 0.7149
1.3600 0.4377 0.7236
1.3800 0.4444 0.7155
1.4000 0.4511 0.7147
1.4200 0.4578 0.7144
1.4400 0.4644 0.7166
1.4600 0.4711 0.7141
1.4800 0.4778 0.7106
1.5000 0.4844 0.7101
1.5200 0.4910 0.7168
1.5400 0.4976 0.7073
1.5600 0.5043 0.7120
1.5800 0.5110 0.7101
1.6000 0.5177 0.7039
1.6200 0.5244 0.7098
1.6400 0.5311 0.7108
1.6600 0.5378 0.6988
1.6800 0.5444 0.7132
1.7000 0.5509 0.7055
1.7200 0.5576 0.7004
1.7400 0.5643 0.7096
1.7600 0.5710 0.7056
1.7800 0.5777 0.6982
1.8000 0.5844 0.7081
1.8200 0.5911 0.6980
1.8400 0.5977 0.6913
1.8600 0.6044 0.7105
1.8800 0.6110 0.6942
1.9000 0.6176 0.6951
1.9200 0.6243 0.7049
1.9400 0.6311 0.6907
1.9600 0.6377 0.6911
1.9800 0.6444 0.7001
2.0000 0.6511 0.6900
2.0200 0.6578 0.6875
2.0400 0.6644 0.6908
2.0600 0.6710 0.6868
2.0800 0.6776 0.6851
2.1000 0.6843 0.6915
2.1200 0.6910 0.6798
2.1400 0.6977 0.6802
2.1600 0.7044 0.6862
2.1800 0.7111 0.6791
2.2000 0.7178 0.6761
2.2200 0.7244 0.6815
2.2400 0.7310 0.6835
2.2600 0.7377 0.6747
2.2800 0.7443 0.6776
2.3000 0.7511 0.6760
2.3200 0.7577 0.6702
2.3400 0.7644 0.6763
2.3600 0.7711 0.6733
2.3800 0.7778 0.6611
2.4000 0.7844 0.6752
2.4200 0.7910 0.6775
2.4400 0.7976 0.6594
2.4600 0.8043 0.6695
2.4800 0.8110 0.6773
2.5000 0.8177 0.6550
2.5200 0.8244 0.6718
2.5400 0.8311 0.6703
2.5600 0.8377 0.6583
2.5800 0.8444 0.6658
2.6000 0.8510 0.6637
2.6200 0.8576 0.6518
2.6400 0.8643 0.6707
2.6600 0.8710 0.6626
2.6800 0.8777 0.6434
2.7000 0.8844 0.6648
2.7200 0.8911 0.6616
2.7400 0.8978 0.6466
2.7600 0.9044 0.6570
2.7800 0.9110 0.6555
2.8000 0.9176 0.6456
2.8200 0.9243 0.6603
2.8400 0.9311 0.6551
2.8600 0.9378 0.6383
2.8800 0.9444 0.6565
2.9000 0.9511 0.6522
2.9200 0.9578 0.6324
2.9400 0.9644 0.6533
2.9600 0.9710 0.6510
2.9800 0.9777 0.6356
3.0000 0.9843 0.6488
3.0200 0.9910 0.6520
3.0400 0.9977 0.6284
3.0600 1.0044 0.6509
3.0800 1.0111 0.6423
3.1000 1.0177 0.6351
3.1200 1.0244 0.6440
3.1400 1.0310 0.6407
3.1600 1.0376 0.6318
3.1800 1.0443 0.6429
3.2000 1.0510 0.6385
3.2200 1.0577 0.6332
3.2400 1.0644 0.6430
3.2600 1.0711 0.6411
3.2800 1.0778 0.6320
3.3000 1.0844 0.6422
3.3200 1.0910 0.6372
3.3400 1.0977 0.6331
3.3600 1.1044 0.6388
3.3800 1.1111 0.6307
3.4000 1.1178 0.6283
3.4200 1.1245 0.6351
3.4400 1.1311 0.6378
3.4600 1.1378 0.6272
3.4800 1.1444 0.6330
3.5000 1.1510 0.6312
3.5200 1.1577 0.6323
3.5400 1.1643 0.6292
3.5600 1.1711 0.6322
3.5800 1.1778 0.6319
3.6000 1.1844 0.6226
3.6200 1.1911 0.6288
3.6400 1.1978 0.6321
3.6600 1.2044 0.6214
3.6800 1.2110 0.6253
3.7000 1.2176 0.6310
3.7200 1.2243 0.6250
3.7400 1.2310 0.6227
3.7600 1.2377 0.6256
3.7800 1.2444 0.6205
3.8000 1.2511 0.6265
3.8200 1.2578 0.6263
3.8400 1.2644 0.6143
3.8600 1.2710 0.6275
3.8800 1.2776 0.6212
3.9000 1.2843 0.6132
3.9200 1.2910 0.6239
3.9400 1.2977 0.6162
3.9600 1.3044 0.6116
3.9800 1.3110 0.6203
4.0000 1.3177 0.6161
4.0200 1.3244 0.6098
4.0400 1.3310 0.6181
4.0600 1.3377 0.6107
4.0800 1.3443 0.6053
4.1000 1.3510 0.6226
4.1200 1.3577 0.6024
4.1400 1.3644 0.6096
4.1600 1.3711 0.6180
4.1800 1.3778 0.5989
4.2000 1.3845 0.6027
4.2200 1.3911 0.6197
4.2400 1.3977 0.6038
4.2600 1.4043 0.6032
4.2800 1.4111 0.6087
4.3000 1.4178 0.6005
4.3200 1.4244 0.6048
4.3400 1.4311 0.6047
4.3600 1.4378 0.5968
4.3800 1.4444 0.6017
4.4000 1.4510 0.6024
4.4200 1.4576 0.5991
4.4400 1.4643 0.6034
4.4600 1.4710 0.5988
4.4800 1.4777 0.5973
4.5000 1.4844 0.5960
4.5200 1.4910 0.5982
4.5400 1.4977 0.5979
4.5600 1.5044 0.5949
4.5800 1.5110 0.5916
4.6000 1.5177 0.5979
4.6200 1.5243 0.5871
4.6400 1.5310 0.5951
4.6600 1.5377 0.5925
4.6800 1.5444 0.5866
4.7000 1.5511 0.5919
4.7200 1.5578 0.5907
4.7400 1.5645 0.5849
4.7600 1.5711 0.5905
4.7800 1.5777 0.5878
4.8000 1.5843 0.5795
4.8200 1.5910 0.5844
4.8400 1.5977 0.5863
4.8600 1.6044 0.5841
4.8800 1.6111 0.5849
4.9000 1.6178 0.5794
4.9200 1.6244 0.5821
4.9400 1.6310 0.5851
4.9600 1.6376 0.5763
4.9800 1.6443 0.5816
5.0000 1.6510 0.5797
5.0200 1.6577 0.5747
5.0400 1.6644 0.5816
5.0600 1.6711 0.5781
5.0800 1.6778 0.5725
5.1000 1.6845 0.5840
5.1200 1.6911 0.5663
5.1400 1.6977 0.5718
5.1600 1.7043 0.5856
5.1800 1.7110 0.5676
5.2000 1.7177 0.5685
5.2200 1.7244 0.5825
5.2400 1.7311 0.5632
5.2600 1.7378 0.5707
5.2800 1.7445 0.5754
5.3000 1.7510 0.5595
5.3200 1.7576 0.5716
5.3400 1.7643 0.5728
5.3600 1.7710 0.5561
5.3800 1.7777 0.5711
5.4000 1.7844 0.5721
5.4200 1.7911 0.5502
5.4400 1.7977 0.5727
5.4600 1.8044 0.5664
5.4800 1.8110 0.5522
5.5000 1.8177 0.5759
5.5200 1.8243 0.5627
5.5400 1.8310 0.5491
5.5600 1.8377 0.5708
5.5800 1.8444 0.5593
5.6000 1.8511 0.5566
5.6200 1.8578 0.5668
5.6400 1.8645 0.5577
5.6600 1.8711 0.5532
5.6800 1.8777 0.5630
5.7000 1.8843 0.5580
5.7200 1.8910 0.5553
5.7400 1.8977 0.5587
5.7600 1.9044 0.5523
5.7800 1.9111 0.5510
5.8000 1.9178 0.5566
5.8200 1.9245 0.5520
5.8400 1.9311 0.5501
5.8600 1.9377 0.5557
5.8800 1.9443 0.5550
5.9000 1.9510 0.5510
5.9200 1.9578 0.5532
5.9400 1.9644 0.5536
5.9600 1.9711 0.5447
5.9800 1.9778 0.5536
6.0000 1.9844 0.5547
6.0200 1.9910 0.5472
6.0400 1.9976 0.5478
6.0600 2.0043 0.5567
6.0800 2.0110 0.5386
6.1000 2.0177 0.5480
6.1200 2.0244 0.5523
6.1400 2.0310 0.5402
6.1600 2.0377 0.5455
6.1800 2.0444 0.5469
6.2000 2.0510 0.5359
6.2200 2.0577 0.5466
6.2400 2.0643 0.5469
6.2600 2.0710 0.5325
6.2800 2.0777 0.5431
6.3000 2.0844 0.5474
6.3200 2.0911 0.5291
6.3400 2.0978 0.5438
6.3600 2.1045 0.5480
6.3800 2.1111 0.5257
6.4000 2.1177 0.5425
6.4200 2.1243 0.5450
6.4400 2.1311 0.5258
6.4600 2.1378 0.5417
6.4800 2.1445 0.5411
6.5000 2.1511 0.5218
6.5200 2.1578 0.5450
6.5400 2.1644 0.5363
6.5600 2.1711 0.5214
6.5800 2.1777 0.5396
6.6000 2.1843 0.5415
6.6200 2.1910 0.5176
6.6400 2.1977 0.5406
6.6600 2.2044 0.5355
6.6800 2.2111 0.5169
6.7000 2.2177 0.5365
6.7200 2.2244 0.5326
6.7400 2.2311 0.5164
6.7600 2.2377 0.5341
6.7800 2.2443 0.5297
6.8000 2.2510 0.5209
6.8200 2.2577 0.5264
6.8400 2.2644 0.5275
6.8600 2.2711 0.5168
6.8800 2.2778 0.5315
6.9000 2.2845 0.5237
6.9200 2.2911 0.5129
6.9400 2.2977 0.5276
6.9600 2.3043 0.5167
6.9800 2.3110 0.5177
7.0000 2.3177 0.5273
7.0200 2.3244 0.5180
7.0400 2.3311 0.5113
7.0600 2.3378 0.5295
7.0800 2.3445 0.5118
7.1000 2.3511 0.5136
7.1200 2.3577 0.5260
7.1400 2.3644 0.5137
7.1600 2.3710 0.5096
7.1800 2.3777 0.5236
7.2000 2.3844 0.5139
7.2200 2.3911 0.5110
7.2400 2.3978 0.5170
7.2600 2.4045 0.5085
7.2800 2.4111 0.5086
7.3000 2.4177 0.5237
7.3200 2.4243 0.5099
7.3400 2.4310 0.5055
7.3600 2.4377 0.5164
7.3800 2.4444 0.5078
7.4000 2.4511 0.5006
7.4200 2.4578 0.5182
7.4400 2.4644 0.5071
7.4600 2.4710 0.5001
7.4800 2.4776 0.5140
7.5000 2.4843 0.5040
7.5200 2.4910 0.5009
7.5400 2.4977 0.5107
7.5600 2.5044 0.4982
7.5800 2.5110 0.4956
7.6000 2.5177 0.5126
7.6200 2.5244 0.4966
7.6400 2.5310 0.4989
7.6600 2.5377 0.5102
7.6800 2.5443 0.4966
7.7000 2.5510 0.4971
7.7200 2.5577 0.5028
7.7400 2.5644 0.4960
7.7600 2.5711 0.5034
7.7800 2.5778 0.4964
7.8000 2.5845 0.4962
7.8200 2.5911 0.4947
7.8400 2.5977 0.4951
7.8600 2.6043 0.4964
7.8800 2.6110 0.4938
7.9000 2.6177 0.4953
7.9200 2.6244 0.4976
7.9400 2.6311 0.4904
7.9600 2.6378 0.4922
7.9800 2.6445 0.4974
8.0000 2.6511 0.4905
8.0200 2.6577 0.4942
8.0400 2.6643 0.4911
8.0600 2.6710 0.4876
8.0800 2.6777 0.4971
8.1000 2.6844 0.4878
8.1200 2.6911 0.4843
8.1400 2.6977 0.4965
8.1600 2.7044 0.4863
8.1800 2.7111 0.4840
8.2000 2.7177 0.4898
8.2200 2.7243 0.4864
8.2400 2.7310 0.4902
8.2600 2.7377 0.4889
8.2800 2.7444 0.4822
8.3000 2.7510 0.4911
8.3200 2.7577 0.4858
8.3400 2.7644 0.4822
8.3600 2.7710 0.4855
8.3800 2.7777 0.4856
8.4000 2.7843 0.4813
8.4200 2.7910 0.4789
8.4400 2.7977 0.4732
8.4600 2.8044 0.4918
8.4800 2.8111 0.4836
8.5000 2.8178 0.4707
8.5200 2.8245 0.4851
8.5400 2.8311 0.4797
8.5600 2.8377 0.4729
8.5800 2.8443 0.4866
8.6000 2.8510 0.4799
8.6200 2.8577 0.4739
8.6400 2.8645 0.4824
8.6600 2.8711 0.4716
8.6800 2.8778 0.4756
8.7000 2.8844 0.4847
8.7200 2.8911 0.4710
8.7400 2.8977 0.4679
8.7600 2.9043 0.4815
8.7800 2.9110 0.4682
8.8000 2.9177 0.4705
8.8200 2.9244 0.4787
8.8400 2.9311 0.4679
8.8600 2.9377 0.4712
8.8800 2.9444 0.4735
8.9000 2.9511 0.4638
8.9200 2.9577 0.4715
8.9400 2.9643 0.4726
8.9600 2.9709 0.4638
8.9800 2.9777 0.4723
9.0000 2.9844 0.4656
9.0200 2.9911 0.4579
9.0400 2.9978 0.4723
9.0600 3.0044 0.4672
9.0800 3.0111 0.4622
9.1000 3.0177 0.4690
9.1200 3.0243 0.4596
9.1400 3.0310 0.4637
9.1600 3.0377 0.4650
9.1800 3.0444 0.4557
9.2000 3.0511 0.4684
9.2200 3.0577 0.4657
9.2400 3.0644 0.4491
9.2600 3.0711 0.4635
9.2800 3.0777 0.4644
9.3000 3.0843 0.4566
9.3200 3.0910 0.4611
9.3400 3.0977 0.4551
9.3600 3.1044 0.4485
9.3800 3.1111 0.4712
9.4000 3.1178 0.4514
9.4200 3.1245 0.4495
9.4400 3.1311 0.4595
9.4600 3.1377 0.4464
9.4800 3.1443 0.4472
9.5000 3.1510 0.4669
9.5200 3.1577 0.4492
9.5400 3.1644 0.4463
9.5600 3.1711 0.4547
9.5800 3.1778 0.4388
9.6000 3.1844 0.4513
9.6200 3.1911 0.4590
9.6400 3.1977 0.4329
9.6600 3.2043 0.4492
9.6800 3.2110 0.4594
9.7000 3.2176 0.4264
9.7200 3.2243 0.4476
9.7400 3.2310 0.4614
9.7600 3.2377 0.4342
9.7800 3.2444 0.4377
9.8000 3.2511 0.4498
9.8200 3.2577 0.4333
9.8400 3.2643 0.4414
9.8600 3.2710 0.4475
9.8800 3.2777 0.4303
9.9000 3.2844 0.4352
9.9200 3.2911 0.4425
9.9400 3.2978 0.4272
9.9600 3.3045 0.4402
9.9800 3.3112 0.4455
10.0000 3.3178 0.4195
10.0200 3.3243 0.4282
10.0400 3.3310 0.4466
10.0600 3.3377 0.4277
10.0800 3.3444 0.4320
10.1000 3.3511 0.4424
10.1200 3.3578 0.4128
10.1400 3.3644 0.4315
10.1600 3.3711 0.4458
10.1800 3.3777 0.4141
10.2000 3.3843 0.4307
10.2200 3.3910 0.4396
10.2400 3.3977 0.4131
10.2600 3.4044 0.4324
10.2800 3.4110 0.4417
10.3000 3.4177 0.4135
10.3200 3.4244 0.4289
10.3400 3.4311 0.4374
10.3600 3.4377 0.4106
10.3800 3.4443 0.4406
10.4000 3.4509 0.4344
10.4200 3.4576 0.4104
10.4400 3.4643 0.4376
10.4600 3.4710 0.4299
10.4800 3.4777 0.4116
10.5000 3.4844 0.4413
10.5200 3.4911 0.4237
10.5400 3.4977 0.4117
10.5600 3.5043 0.4401
10.5800 3.5110 0.4216
10.6000 3.5177 0.4116
10.6200 3.5244 0.4387
10.6400 3.5311 0.4197
10.6600 3.5378 0.4113
10.6800 3.5445 0.4362
10.7000 3.5511 0.4185
10.7200 3.5578 0.4180
10.7400 3.5644 0.4283
10.7600 3.5710 0.4202
10.7800 3.5777 0.4171
10.8000 3.5844 0.4319
10.8200 3.5911 0.4169
10.8400 3.5978 0.4111
10.8600 3.6045 0.4321
10.8800 3.6111 0.4162
10.9000 3.6177 0.4075
10.9200 3.6243 0.4282
10.9400 3.6310 0.4180
10.9600 3.6376 0.4101
10.9800 3.6444 0.4199
11.0000 3.6511 0.4166
11.0200 3.6577 0.4047
11.0400 3.6644 0.4256
11.0600 3.6711 0.4131
11.0800 3.6777 0.3998
11.1000 3.6843 0.4278
11.1200 3.6909 0.4104
11.1400 3.6976 0.4002
11.1600 3.7044 0.4237
11.1800 3.7111 0.4101
11.2000 3.7177 0.3992
11.2200 3.7244 0.4184
11.2400 3.7311 0.4064
11.2600 3.7378 0.3980
11.2800 3.7444 0.4176
11.3000 3.7510 0.4112
11.3200 3.7577 0.3973
11.3400 3.7644 0.4106
11.3600 3.7711 0.4033
11.3800 3.7778 0.4048
11.4000 3.7845 0.4087
11.4200 3.7912 0.4040
11.4400 3.7978 0.3935
11.4600 3.8043 0.4054
11.4800 3.8110 0.4138
11.5000 3.8177 0.4038
11.5200 3.8244 0.3967
11.5400 3.8311 0.3988
11.5600 3.8378 0.4026
11.5800 3.8445 0.4026
11.6000 3.8511 0.3997
11.6200 3.8577 0.4024
11.6400 3.8644 0.3976
11.6600 3.8710 0.3975
11.6800 3.8777 0.3999
11.7000 3.8844 0.4077
11.7200 3.8911 0.3989
11.7400 3.8977 0.3847
11.7600 3.9044 0.3948
11.7800 3.9111 0.4029
11.8000 3.9177 0.4007
11.8200 3.9243 0.3913
11.8400 3.9309 0.3880
11.8600 3.9376 0.3961
11.8800 3.9443 0.3975
11.9000 3.9510 0.3920
11.9200 3.9577 0.3996
11.9400 3.9644 0.3843
11.9600 3.9711 0.3938
11.9800 3.9777 0.3942
12.0000 3.9843 0.3867
12.0200 3.9910 0.3952
12.0400 3.9977 0.3933
12.0600 4.0044 0.3827
12.0800 4.0111 0.3949
12.1000 4.0178 0.3906
12.1200 4.0245 0.3843
12.1400 4.0311 0.3940
12.1600 4.0378 0.3856
12.1800 4.0444 0.3807
12.2000 4.0510 0.3908
12.2200 4.0577 0.3860
12.2400 4.0644 0.3811
12.2600 4.0711 0.3931
12.2800 4.0778 0.3905
12.3000 4.0844 0.3726
12.3200 4.0911 0.3830
12.3400 4.0977 0.3963
12.3600 4.1043 0.3862
12.3800 4.1110 0.3827
12.4000 4.1176 0.3787
12.4200 4.1244 0.3766
12.4400 4.1311 0.3920
12.4600 4.1377 0.3922
12.4800 4.1444 0.3688
12.5000 4.1511 0.3813
12.5200 4.1578 0.3773
12.5400 4.1643 0.3712
12.5600 4.1709 0.3966
12.5800 4.1776 0.3865
12.6000 4.1843 0.3472
12.6200 4.1910 0.3718
12.6400 4.1977 0.4024
12.6600 4.2044 0.3792
12.6800 4.2111 0.3702
12.7000 4.2177 0.3649
12.7200 4.2243 0.3719
12.7400 4.2310 0.3843
12.7600 4.2377 0.3780
12.7800 4.2444 0.3752
12.8000 4.2511 0.3745
12.8200 4.2578 0.3543
12.8400 4.2644 0.3630
12.8600 4.2711 0.4032
12.8800 4.2778 0.3813
12.9000 4.2844 0.3426
12.9200 4.2910 0.3664
12.9400 4.2977 0.3769
12.9600 4.3044 0.3816
12.9800 4.3111 0.3731
13.0000 4.3178 0.3618
13.0200 4.3245 0.3553
13.0400 4.3312 0.3639
13.0600 4.3378 0.3712
13.0800 4.3444 0.3764
13.1000 4.3510 0.3683
13.1200 4.3576 0.3586
13.1400 4.3644 0.3605
13.1600 4.3711 0.3649
13.1800 4.3777 0.3727
13.2000 4.3844 0.3757
13.2200 4.3911 0.3521
13.2400 4.3977 0.3485
13.2600 4.4044 0.3631
13.2800 4.4110 0.3663
13.3000 4.4176 0.3682
13.3200 4.4243 0.3616
13.3400 4.4310 0.3475
13.3600 4.4377 0.3524
13.3800 4.4444 0.3667
13.4000 4.4511 0.3662
13.4200 4.4577 0.3573
13.4400 4.4644 0.3513
13.4600 4.4710 0.3519
13.4800 4.4777 0.3514
13.5000 4.4844 0.3562
13.5200 4.4911 0.3676
13.5400 4.4977 0.3686
13.5600 4.5044 0.3268
13.5800 4.5111 0.3358
13.6000 4.5178 0.3850
13.6200 4.5244 0.3660
13.6400 4.5310 0.3328
13.6600 4.5376 0.3633
13.6800 4.5444 0.3411
13.7000 4.5511 0.3296
13.7200 4.5578 0.3830
13.7400 4.5644 0.3567
13.7600 4.5711 0.3268
13.7800 4.5778 0.3506
13.8000 4.5844 0.3356
13.8200 4.5910 0.3565
13.8400 4.5977 0.3785
13.8600 4.6044 0.3247
13.8800 4.6111 0.3250
13.9000 4.6177 0.3546
13.9200 4.6244 0.3503
13.9400 4.6311 0.3476
13.9600 4.6378 0.3562
13.9800 4.6444 0.3200
14.0000 4.6509 0.3310
14.0200 4.6576 0.3625
14.0400 4.6643 0.3466
14.0600 4.6710 0.3267
14.0800 4.6777 0.3494
14.1000 4.6844 0.3369
14.1200 4.6911 0.3247
14.1400 4.6977 0.3551
14.1600 4.7043 0.3461
14.1800 4.7110 0.3217
14.2000 4.7176 0.3421
14.2200 4.7244 0.3408
14.2400 4.7311 0.3267
14.2600 4.7378 0.3496
14.2800 4.7445 0.3340
14.3000 4.7511 0.3198
14.3200 4.7578 0.3505
14.3400 4.7644 0.3349
14.3600 4.7711 0.3248
14.3800 4.7777 0.3551
14.4000 4.7844 0.3262
14.4200 4.7911 0.3197
14.4400 4.7978 0.3537
14.4600 4.8045 0.3307
14.4800 4.8111 0.3204
14.5000 4.8178 0.3537
14.5200 4.8244 0.3240
14.5400 4.8310 0.3230
14.5600 4.8376 0.3571
14.5800 4.8443 0.3313
14.6000 4.8510 0.3159
14.6200 4.8577 0.3508
14.6400 4.8644 0.3241
14.6600 4.8711 0.3258
14.6800 4.8777 0.3489
14.7000 4.8844 0.3186
14.7200 4.8910 0.3199
14.7400 4.8976 0.3559
14.7600 4.9043 0.3234
14.7800 4.9111 0.3182
14.8000 4.9178 0.3536
14.8200 4.9244 0.3158
14.8400 4.9311 0.3201
14.8600 4.9378 0.3478
14.8800 4.9444 0.3196
14.9000 4.9510 0.3254
14.9200 4.9577 0.3441
14.9400 4.9644 0.3198
14.9600 4.9711 0.3274
14.9800 4.9778 0.3403
15.0000 4.9844 0.3200
15.0200 4.9911 0.3251
15.0400 4.9978 0.3370
15.0600 5.0044 0.3192
15.0800 5.0110 0.3294
15.1000 5.0176 0.3294
15.1200 5.0243 0.3270
15.1400 5.0311 0.3233
15.1600 5.0378 0.3252
15.1800 5.0445 0.3227
15.2000 5.0511 0.3235
15.2200 5.0578 0.3208
15.2400 5.0644 0.3162
15.2600 5.0710 0.3238
15.2800 5.0776 0.3278
15.3000 5.0843 0.3208
15.3200 5.0911 0.3202
15.3400 5.0977 0.3194
15.3600 5.1044 0.3215
15.3800 5.1111 0.3220
15.4000 5.1177 0.3163
15.4200 5.1244 0.3194
15.4400 5.1310 0.3224
15.4600 5.1376 0.3183
15.4800 5.1443 0.3097
15.5000 5.1510 0.3254
15.5200 5.1577 0.3147
15.5400 5.1644 0.3169
15.5600 5.1711 0.3190
15.5800 5.1778 0.3137
15.6000 5.1844 0.3138
15.6200 5.1910 0.3195
15.6400 5.1976 0.3105
15.6600 5.2043 0.3146
15.6800 5.2111 0.3183
15.7000 5.2178 0.3056
15.7200 5.2245 0.3066
15.7400 5.2311 0.3205
15.7600 5.2378 0.3085
15.7800 5.2444 0.3061
15.8000 5.2510 0.3187
15.8200 5.2577 0.3089
15.8400 5.2644 0.3046
15.8600 5.2711 0.3129
15.8800 5.2778 0.3096
15.9000 5.2844 0.3049
15.9200 5.2911 0.3107
15.9400 5.2978 0.3049
15.9600 5.3044 0.3047
15.9800 5.3110 0.3117
16.0000 5.3176 0.3092
16.0200 5.3243 0.3015
16.0400 5.3310 0.3102
16.0600 5.3377 0.3045
16.0800 5.3444 0.3064
16.1000 5.3511 0.3043
16.1200 5.3578 0.3004
16.1400 5.3644 0.3029
16.1600 5.3710 0.3083
16.1800 5.3776 0.2970
16.2000 5.3843 0.3000
16.2200 5.3910 0.3059
16.2400 5.3977 0.2935
16.2600 5.4044 0.2970
16.2800 5.4111 0.3059
16.3000 5.4177 0.2924
16.3200 5.4244 0.2942
16.3400 5.4310 0.3020
16.3600 5.4377 0.2970
16.3800 5.4443 0.2994
16.4000 5.4511 0.3015
16.4200 5.4578 0.2901
16.4400 5.4644 0.2878
16.4600 5.4711 0.3048
16.4800 5.4778 0.2891
16.5000 5.4845 0.2866
16.5200 5.4911 0.3004
16.5400 5.4977 0.2881
16.5600 5.5043 0.2848
16.5800 5.5110 0.3046
16.6000 5.5178 0.2853
16.6200 5.5244 0.2813
16.6400 5.5311 0.3016
16.6600 5.5378 0.2792
16.6800 5.5444 0.2822
16.7000 5.5510 0.3045
16.7200 5.5576 0.2768
16.7400 5.5643 0.2789
16.7600 5.5711 0.3004
16.7800 5.5778 0.2814
16.8000 5.5844 0.2763
16.8200 5.5911 0.2965
16.8400 5.5978 0.2714
16.8600 5.6044 0.2772
16.8800 5.6110 0.3050
16.9000 5.6176 0.2694
16.9200 5.6243 0.2766
16.9400 5.6310 0.2972
16.9600 5.6377 0.2726
16.9800 5.6444 0.2754
17.0000 5.6511 0.2987
17.0200 5.6578 0.2664
17.0400 5.6644 0.2681
17.0600 5.6710 0.2954
17.0800 5.6777 0.2753
17.1000 5.6843 0.2727
17.1200 5.6910 0.2942
17.1400 5.6978 0.2629
17.1600 5.7044 0.2757
17.1800 5.7111 0.2898
17.2000 5.7178 0.2664
17.2200 5.7244 0.2741
17.2400 5.7310 0.2944
17.2600 5.7376 0.2651
17.2800 5.7443 0.2752
17.3000 5.7511 0.2928
17.3200 5.7578 0.2621
17.3400 5.7644 0.2739
17.3600 5.7711 0.2890
17.3800 5.7778 0.2675
17.4000 5.7844 0.2734
17.4200 5.7910 0.2871
17.4400 5.7977 0.2658
17.4600 5.8043 0.2765
17.4800 5.8110 0.2883
17.5000 5.8177 0.2617
17.5200 5.8244 0.2733
17.5400 5.8311 0.2882
17.5600 5.8378 0.2599
17.5800 5.8444 0.2789
17.6000 5.8510 0.2805
17.6200 5.8576 0.2592
17.6400 5.8643 0.2736
17.6600 5.8710 0.2886
17.6800 5.8777 0.2616
17.7000 5.8844 0.2708
17.7200 5.8911 0.2804
17.7400 5.8978 0.2618
17.7600 5.9044 0.2719
