Raw Data
Time Displacement Force
(s) (mm) (N)
0.0000 0.0000 -0.0003
0.0200 0.0000 0.0072
0.0400 0.0008 0.0260
0.0600 0.0040 0.0428
0.0800 0.0096 0.0083
0.1000 0.0154 -0.0193
0.1200 0.0213 0.0169
0.1400 0.0278 0.0231
0.1600 0.0351 -0.0178
0.1800 0.0425 0.0037
0.2000 0.0498 0.0039
0.2200 0.0567 -0.0194
0.2400 0.0634 0.0094
0.2600 0.0701 0.0046
0.2800 0.0768 -0.0184
0.3000 0.0834 0.0173
0.3200 0.0901 0.0021
0.3400 0.0968 -0.0144
0.3600 0.1034 0.0141
0.3800 0.1101 -0.0033
0.4000 0.1168 -0.0130
0.4200 0.1235 0.0141
0.4400 0.1302 -0.0024
0.4600 0.1369 -0.0126
0.4800 0.1435 0.0094
0.5000 0.1501 -0.0031
0.5200 0.1567 -0.0011
0.5400 0.1634 0.0106
0.5600 0.1701 -0.0056
0.5800 0.1768 -0.0037
0.6000 0.1835 0.0058
0.6200 0.1902 0.0002
0.6400 0.1968 0.0026
0.6600 0.2035 -0.0037
0.6800 0.2101 0.0000
0.7000 0.2167 0.0017
0.7200 0.2234 0.0014
0.7400 0.2301 -0.0058
0.7600 0.2368 -0.0011
0.7800 0.2435 0.0003
0.8000 0.2502 0.0017
0.8200 0.2569 -0.0016
0.8400 0.2635 -0.0028
0.8600 0.2702 0.0057
0.8800 0.2768 -0.0044
0.9000 0.2834 -0.0056
0.9200 0.2901 0.0121
0.9400 0.2968 -0.0027
0.9600 0.3035 -0.0039
0.9800 0.3102 0.0032
1.0000 0.3169 -0.0045
1.0200 0.3235 0.0041
1.0400 0.3301 0.0045
1.0600 0.3367 -0.0096
1.0800 0.3434 0.0069
1.1000 0.3501 0.0057
1.1200 0.3568 -0.0112
1.1400 0.3635 0.0102
1.1600 0.3702 0.0061
1.1800 0.3769 -0.0095
1.2000 0.3835 0.0089
1.2200 0.3901 0.0040
1.2400 0.3967 -0.0099
1.2600 0.4034 0.0160
1.2800 0.4101 -0.0004
1.3000 0.4168 -0.0117
1.3200 0.4234 0.0132
1.3400 0.4301 0.0017
1.3600 0.4368 -0.0094
1.3800 0.4435 0.0086
1.4000 0.4502 0.0006
1.4200 0.4568 -0.0029
1.4400 0.4634 0.0089
1.4600 0.4701 0.0002
1.4800 0.4768 -0.0028
1.5000 0.4835 0.0081
1.5200 0.4902 0.0005
1.5400 0.4969 0.0022
1.5600 0.5036 -0.0003
1.5800 0.5102 0.0028
1.6000 0.5168 0.0053
1.6200 0.5234 0.0006
1.6400 0.5301 0.0018
1.6600 0.5369 0.0021
1.6800 0.5435 0.0033
1.7000 0.5502 0.0032
1.7200 0.5569 0.0026
1.7400 0.5635 -0.0042
1.7600 0.5701 0.0087
1.7800 0.5768 0.0033
1.8000 0.5834 0.0003
1.8200 0.5901 0.0096
1.8400 0.5968 -0.0020
1.8600 0.6035 -0.0048
1.8800 0.6101 0.0183
1.9000 0.6168 -0.0019
1.9200 0.6235 -0.0040
1.9400 0.6301 0.0104
1.9600 0.6367 -0.0021
1.9800 0.6434 0.0053
2.0000 0.6501 0.0161
2.0200 0.6568 -0.0045
2.0400 0.6635 -0.0018
2.0600 0.6702 0.0178
2.0800 0.6769 0.0013
2.1000 0.6835 0.0025
2.1200 0.6901 0.0177
2.1400 0.6967 0.0000
2.1600 0.7034 0.0030
2.1800 0.7101 0.0165
2.2000 0.7168 0.0004
2.2200 0.7235 0.0092
2.2400 0.7302 0.0138
2.2600 0.7369 0.0003
2.2800 0.7436 0.0069
2.3000 0.7502 0.0238
2.3200 0.7568 -0.0008
2.3400 0.7634 0.0099
2.3600 0.7701 0.0245
2.3800 0.7768 0.0020
2.4000 0.7835 0.0056
2.4200 0.7902 0.0294
2.4400 0.7969 0.0023
2.4600 0.8036 0.0067
2.4800 0.8102 0.0266
2.5000 0.8168 0.0067
2.5200 0.8234 0.0079
2.5400 0.8301 0.0294
2.5600 0.8368 0.0061
2.5800 0.8435 0.0091
2.6000 0.8502 0.0285
2.6200 0.8569 0.0145
2.6400 0.8635 0.0118
2.6600 0.8701 0.0175
2.6800 0.8767 0.0148
2.7000 0.8834 0.0215
2.7200 0.8901 0.0217
2.7400 0.8968 0.0125
2.7600 0.9034 0.0173
2.7800 0.9101 0.0281
2.8000 0.9168 0.0198
2.8200 0.9235 0.0153
2.8400 0.9301 0.0311
2.8600 0.9368 0.0143
2.8800 0.9434 0.0182
2.9000 0.9501 0.0330
2.9200 0.9568 0.0229
2.9400 0.9635 0.0149
2.9600 0.9702 0.0288
2.9800 0.9769 0.0270
3.0000 0.9836 0.0180
3.0200 0.9902 0.0374
3.0400 0.9968 0.0242
3.0600 1.0034 0.0160
3.0800 1.0101 0.0382
3.1000 1.0168 0.0260
3.1200 1.0235 0.0259
3.1400 1.0302 0.0448
3.1600 1.0369 0.0257
3.1800 1.0436 0.0226
3.2000 1.0502 0.0404
3.2200 1.0568 0.0348
3.2400 1.0634 0.0312
3.2600 1.0701 0.0426
3.2800 1.0768 0.0270
3.3000 1.0835 0.0324
3.3200 1.0902 0.0387
3.3400 1.0969 0.0338
3.3600 1.1035 0.0351
3.3800 1.1102 0.0404
3.4000 1.1168 0.0346
3.4200 1.1234 0.0402
3.4400 1.1301 0.0431
3.4600 1.1368 0.0406
3.4800 1.1435 0.0353
3.5000 1.1501 0.0435
3.5200 1.1568 0.0388
3.5400 1.1635 0.0413
3.5600 1.1701 0.0438
3.5800 1.1768 0.0421
3.6000 1.1834 0.0434
3.6200 1.1901 0.0508
3.6400 1.1968 0.0425
3.6600 1.2035 0.0443
3.6800 1.2102 0.0520
3.7000 1.2169 0.0428
3.7200 1.2236 0.0461
3.7400 1.2302 0.0516
3.7600 1.2368 0.0486
3.7800 1.2434 0.0495
3.8000 1.2501 0.0488
3.8200 1.2568 0.0439
3.8400 1.2636 0.0560
3.8600 1.2702 0.0492
3.8800 1.2769 0.0489
3.9000 1.2836 0.0541
3.9200 1.2902 0.0488
3.9400 1.2968 0.0504
3.9600 1.3034 0.0586
3.9800 1.3101 0.0508
4.0000 1.3168 0.0595
4.0200 1.3235 0.0538
4.0400 1.3301 0.0503
4.0600 1.3368 0.0621
4.0800 1.3435 0.0585
4.1000 1.3502 0.0471
4.1200 1.3568 0.0649
4.1400 1.3634 0.0545
4.1600 1.3701 0.0585
4.1800 1.3768 0.0675
4.2000 1.3835 0.0545
4.2200 1.3902 0.0569
4.2400 1.3968 0.0668
4.2600 1.4035 0.0558
4.2800 1.4102 0.0620
4.3000 1.4168 0.0684
4.3200 1.4234 0.0581
4.3400 1.4301 0.0583
4.3600 1.4368 0.0644
4.3800 1.4435 0.0673
4.4000 1.4502 0.0595
4.4200 1.4569 0.0669
4.4400 1.4636 0.0677
4.4600 1.4702 0.0664
4.4800 1.4768 0.0666
4.5000 1.4834 0.0699
4.5200 1.4901 0.0676
4.5400 1.4968 0.0668
4.5600 1.5035 0.0664
4.5800 1.5102 0.0652
4.6000 1.5169 0.0722
4.6200 1.5236 0.0745
4.6400 1.5302 0.0669
4.6600 1.5368 0.0767
4.6800 1.5434 0.0725
4.7000 1.5501 0.0655
4.7200 1.5568 0.0777
4.7400 1.5635 0.0743
4.7600 1.5702 0.0702
4.7800 1.5769 0.0756
4.8000 1.5835 0.0785
4.8200 1.5902 0.0713
4.8400 1.5968 0.0748
4.8600 1.6034 0.0804
4.8800 1.6101 0.0742
4.9000 1.6168 0.0780
4.9200 1.6234 0.0850
4.9400 1.6301 0.0761
4.9600 1.6368 0.0759
4.9800 1.6435 0.0796
5.0000 1.6502 0.0772
5.0200 1.6568 0.0786
5.0400 1.6634 0.0856
5.0600 1.6701 0.0775
5.0800 1.6768 0.0809
5.1000 1.6835 0.0863
5.1200 1.6902 0.0789
5.1400 1.6969 0.0865
5.1600 1.7036 0.0916
5.1800 1.7103 0.0722
5.2000 1.7168 0.0854
5.2200 1.7235 0.0912
5.2400 1.7301 0.0755
5.2600 1.7368 0.0877
5.2800 1.7435 0.0917
5.3000 1.7502 0.0768
5.3200 1.7569 0.0872
5.3400 1.7636 0.0934
5.3600 1.7702 0.0793
5.3800 1.7768 0.0896
5.4000 1.7834 0.0962
5.4200 1.7901 0.0783
5.4400 1.7968 0.0936
5.4600 1.8035 0.1015
5.4800 1.8101 0.0753
5.5000 1.8168 0.0975
5.5200 1.8235 0.0954
5.5400 1.8302 0.0814
5.5600 1.8368 0.0987
5.5800 1.8434 0.0974
5.6000 1.8500 0.0816
5.6200 1.8567 0.0964
5.6400 1.8634 0.0981
5.6600 1.8701 0.0889
5.6800 1.8768 0.1002
5.7000 1.8835 0.0964
5.7200 1.8902 0.0876
5.7400 1.8968 0.1024
5.7600 1.9034 0.1030
5.7800 1.9101 0.0867
5.8000 1.9168 0.0973
5.8200 1.9235 0.1073
5.8400 1.9302 0.0895
5.8600 1.9369 0.0989
5.8800 1.9436 0.1067
5.9000 1.9502 0.0906
5.9200 1.9569 0.0948
5.9400 1.9635 0.1091
5.9600 1.9701 0.0963
5.9800 1.9768 0.1009
6.0000 1.9835 0.1120
6.0200 1.9902 0.0961
6.0400 1.9969 0.0983
6.0600 2.0036 0.1108
6.0800 2.0102 0.1002
6.1000 2.0168 0.0993
6.1200 2.0234 0.1112
6.1400 2.0301 0.1031
6.1600 2.0368 0.1030
6.1800 2.0435 0.1080
6.2000 2.0502 0.1054
6.2200 2.0568 0.1025
6.2400 2.0635 0.1150
6.2600 2.0702 0.1004
6.2800 2.0768 0.1086
6.3000 2.0834 0.1160
6.3200 2.0901 0.1033
6.3400 2.0968 0.1067
6.3600 2.1035 0.1134
6.3800 2.1102 0.1057
6.4000 2.1168 0.1073
6.4200 2.1235 0.1198
6.4400 2.1302 0.1092
6.4600 2.1368 0.1043
6.4800 2.1435 0.1193
6.5000 2.1501 0.1098
6.5200 2.1568 0.1109
6.5400 2.1635 0.1204
6.5600 2.1702 0.1056
6.5800 2.1769 0.1137
6.6000 2.1836 0.1191
6.6200 2.1903 0.1104
6.6400 2.1969 0.1117
6.6600 2.2034 0.1265
6.6800 2.2101 0.1091
6.7000 2.2168 0.1144
6.7200 2.2235 0.1256
6.7400 2.2302 0.1100
6.7600 2.2369 0.1120
6.7800 2.2436 0.1263
6.8000 2.2502 0.1123
6.8200 2.2568 0.1185
6.8400 2.2635 0.1261
6.8600 2.2701 0.1128
6.8800 2.2768 0.1194
6.9000 2.2835 0.1254
6.9200 2.2902 0.1142
6.9400 2.2968 0.1269
6.9600 2.3035 0.1259
6.9800 2.3102 0.1082
7.0000 2.3168 0.1289
7.0200 2.3234 0.1318
7.0400 2.3300 0.1130
7.0600 2.3367 0.1309
7.0800 2.3434 0.1222
7.1000 2.3501 0.1154
7.1200 2.3568 0.1372
7.1400 2.3635 0.1234
7.1600 2.3702 0.1168
7.1800 2.3768 0.1331
7.2000 2.3834 0.1250
7.2200 2.3901 0.1191
7.2400 2.3968 0.1387
7.2600 2.4035 0.1222
7.2800 2.4102 0.1245
7.3000 2.4169 0.1318
7.3200 2.4236 0.1278
7.3400 2.4302 0.1310
7.3600 2.4368 0.1316
7.3800 2.4435 0.1278
7.4000 2.4501 0.1340
7.4200 2.4568 0.1275
7.4400 2.4635 0.1297
7.4600 2.4702 0.1365
7.4800 2.4768 0.1307
7.5000 2.4835 0.1280
7.5200 2.4902 0.1365
7.5400 2.4969 0.1266
7.5600 2.5035 0.1372
7.5800 2.5101 0.1392
7.6000 2.5167 0.1278
7.6200 2.5234 0.1346
7.6400 2.5301 0.1364
7.6600 2.5368 0.1310
7.6800 2.5435 0.1367
7.7000 2.5502 0.1356
7.7200 2.5568 0.1314
7.7400 2.5634 0.1391
7.7600 2.5700 0.1375
7.7800 2.5767 0.1329
7.8000 2.5835 0.1389
7.8200 2.5902 0.1382
7.8400 2.5968 0.1330
7.8600 2.6035 0.1413
7.8800 2.6102 0.1387
7.9000 2.6168 0.1317
7.9200 2.6234 0.1416
7.9400 2.6301 0.1432
7.9600 2.6368 0.1349
7.9800 2.6435 0.1436
8.0000 2.6502 0.1387
8.0200 2.6569 0.1414
8.0400 2.6636 0.1413
8.0600 2.6702 0.1438
8.0800 2.6769 0.1403
8.1000 2.6835 0.1402
8.1200 2.6901 0.1448
8.1400 2.6968 0.1455
8.1600 2.7035 0.1420
8.1800 2.7102 0.1445
8.2000 2.7169 0.1463
8.2200 2.7236 0.1418
8.2400 2.7303 0.1453
8.2600 2.7369 0.1474
8.2800 2.7435 0.1434
8.3000 2.7501 0.1507
8.3200 2.7567 0.1493
8.3400 2.7635 0.1442
8.3600 2.7701 0.1525
8.3800 2.7768 0.1459
8.4000 2.7835 0.1467
8.4200 2.7902 0.1516
8.4400 2.7968 0.1523
8.4600 2.8034 0.1435
8.4800 2.8101 0.1490
8.5000 2.8167 0.1477
8.5200 2.8235 0.1513
8.5400 2.8301 0.1493
8.5600 2.8368 0.1448
8.5800 2.8435 0.1569
8.6000 2.8502 0.1537
8.6200 2.8568 0.1452
8.6400 2.8635 0.1543
8.6600 2.8701 0.1586
8.6800 2.8768 0.1476
8.7000 2.8835 0.1534
8.7200 2.8902 0.1521
8.7400 2.8968 0.1545
8.7600 2.9036 0.1540
8.7800 2.9103 0.1526
8.8000 2.9169 0.1510
8.8200 2.9235 0.1585
8.8400 2.9301 0.1556
8.8600 2.9368 0.1564
8.8800 2.9435 0.1560
8.9000 2.9502 0.1573
8.9200 2.9569 0.1581
8.9400 2.9635 0.1563
8.9600 2.9702 0.1556
8.9800 2.9769 0.1626
9.0000 2.9835 0.1522
9.0200 2.9901 0.1589
9.0400 2.9968 0.1617
9.0600 3.0035 0.1546
9.0800 3.0102 0.1623
9.1000 3.0168 0.1650
9.1200 3.0235 0.1555
9.1400 3.0302 0.1667
9.1600 3.0369 0.1624
9.1800 3.0435 0.1526
9.2000 3.0500 0.1639
9.2200 3.0567 0.1700
9.2400 3.0634 0.1534
9.2600 3.0701 0.1650
9.2800 3.0768 0.1649
9.3000 3.0835 0.1546
9.3200 3.0902 0.1692
9.3400 3.0968 0.1665
9.3600 3.1034 0.1536
9.3800 3.1101 0.1711
9.4000 3.1168 0.1653
9.4200 3.1235 0.1538
9.4400 3.1302 0.1777
9.4600 3.1369 0.1669
9.4800 3.1436 0.1538
9.5000 3.1503 0.1728
9.5200 3.1569 0.1684
9.5400 3.1635 0.1575
9.5600 3.1701 0.1754
9.5800 3.1768 0.1697
9.6000 3.1835 0.1598
9.6200 3.1902 0.1716
9.6400 3.1969 0.1748
9.6600 3.2036 0.1596
9.6800 3.2102 0.1767
9.7000 3.2169 0.1650
9.7200 3.2235 0.1646
9.7400 3.2301 0.1792
9.7600 3.2367 0.1686
9.7800 3.2434 0.1655
9.8000 3.2501 0.1735
9.8200 3.2568 0.1700
9.8400 3.2635 0.1665
9.8600 3.2702 0.1728
9.8800 3.2768 0.1752
9.9000 3.2834 0.1683
9.9200 3.2901 0.1751
9.9400 3.2968 0.1778
9.9600 3.3035 0.1667
9.9800 3.3102 0.1734
10.0000 3.3168 0.1797
10.0200 3.3235 0.1708
10.0400 3.3302 0.1688
10.0600 3.3369 0.1820
10.0800 3.3435 0.1761
10.1000 3.3501 0.1715
10.1200 3.3568 0.1818
10.1400 3.3635 0.1738
10.1600 3.3702 0.1723
10.1800 3.3769 0.1890
10.2000 3.3835 0.1709
10.2200 3.3902 0.1699
10.2400 3.3969 0.1860
10.2600 3.4035 0.1767
10.2800 3.4101 0.1744
10.3000 3.4167 0.1862
10.3200 3.4234 0.1746
10.3400 3.4302 0.1786
10.3600 3.4369 0.1910
10.3800 3.4435 0.1668
10.4000 3.4502 0.1807
10.4200 3.4569 0.1899
10.4400 3.4635 0.1706
10.4600 3.4701 0.1825
10.4800 3.4767 0.1910
10.5000 3.4834 0.1730
10.5200 3.4902 0.1828
10.5400 3.4968 0.1891
10.5600 3.5035 0.1772
10.5800 3.5102 0.1874
10.6000 3.5168 0.1864
10.6200 3.5235 0.1777
10.6400 3.5301 0.1941
10.6600 3.5367 0.1809
10.6800 3.5434 0.1821
10.7000 3.5501 0.1903
10.7200 3.5568 0.1838
10.7400 3.5635 0.1830
10.7600 3.5702 0.1929
10.7800 3.5769 0.1841
10.8000 3.5835 0.1817
10.8200 3.5901 0.1887
10.8400 3.5967 0.1894
10.8600 3.6035 0.1851
10.8800 3.6102 0.1868
10.9000 3.6169 0.1898
10.9200 3.6236 0.1860
10.9400 3.6302 0.1872
10.9600 3.6369 0.1911
10.9800 3.6435 0.1841
11.0000 3.6501 0.1926
11.0200 3.6568 0.1974
11.0400 3.6635 0.1829
11.0600 3.6702 0.1918
11.0800 3.6769 0.1913
11.1000 3.6835 0.1883
11.1200 3.6902 0.1911
11.1400 3.6969 0.1936
11.1600 3.7035 0.1842
11.1800 3.7101 0.1942
11.2000 3.7167 0.1963
11.2200 3.7234 0.1908
11.2400 3.7301 0.1898
11.2600 3.7368 0.1970
11.2800 3.7435 0.1919
11.3000 3.7502 0.1974
11.3200 3.7569 0.1950
11.3400 3.7635 0.1926
11.3600 3.7701 0.1951
11.3800 3.7767 0.1968
11.4000 3.7834 0.1953
11.4200 3.7901 0.1970
11.4400 3.7968 0.1967
11.4600 3.8035 0.1936
11.4800 3.8102 0.1967
11.5000 3.8169 0.1968
11.5200 3.8235 0.1928
11.5400 3.8301 0.1950
11.5600 3.8368 0.1985
11.5800 3.8435 0.1924
11.6000 3.8502 0.1972
11.6200 3.8569 0.2022
11.6400 3.8635 0.1934
11.6600 3.8702 0.1951
11.6800 3.8769 0.2065
11.7000 3.8836 0.1948
11.7200 3.8902 0.2012
11.7400 3.8968 0.1999
11.7600 3.9035 0.1978
11.7800 3.9102 0.2046
11.8000 3.9169 0.2044
11.8200 3.9236 0.1950
11.8400 3.9302 0.2003
11.8600 3.9369 0.1975
11.8800 3.9435 0.2012
11.9000 3.9501 0.2025
11.9200 3.9567 0.2045
11.9400 3.9634 0.1986
11.9600 3.9702 0.2016
11.9800 3.9768 0.2049
12.0000 3.9835 0.2040
12.0200 3.9902 0.2008
12.0400 3.9968 0.2034
12.0600 4.0035 0.2006
12.0800 4.0101 0.2051
12.1000 4.0168 0.2111
12.1200 4.0234 0.2020
12.1400 4.0301 0.2023
12.1600 4.0368 0.2056
12.1800 4.0435 0.2108
12.2000 4.0502 0.1999
12.2200 4.0569 0.2096
12.2400 4.0635 0.2053
12.2600 4.0701 0.1970
12.2800 4.0768 0.2127
12.3000 4.0834 0.2124
12.3200 4.0901 0.1987
12.3400 4.0968 0.2074
12.3600 4.1035 0.2102
12.3800 4.1102 0.2046
12.4000 4.1169 0.2080
12.4200 4.1235 0.2140
12.4400 4.1301 0.1983
12.4600 4.1368 0.2157
12.4800 4.1434 0.2160
12.5000 4.1502 0.1960
12.5200 4.1569 0.2176
12.5400 4.1635 0.2113
12.5600 4.1702 0.1984
12.5800 4.1769 0.2184
12.6000 4.1835 0.2118
12.6200 4.1901 0.1998
12.6400 4.1968 0.2187
12.6600 4.2034 0.2174
12.6800 4.2101 0.1987
12.7000 4.2168 0.2161
12.7200 4.2235 0.2160
12.7400 4.2302 0.2007
12.7600 4.2369 0.2170
12.7800 4.2435 0.2177
12.8000 4.2501 0.2127
12.8200 4.2567 0.2114
12.8400 4.2634 0.2172
12.8600 4.2701 0.2078
12.8800 4.2768 0.2154
12.9000 4.2835 0.2185
12.9200 4.2902 0.2123
12.9400 4.2968 0.2192
12.9600 4.3035 0.2179
12.9800 4.3101 0.2051
13.0000 4.3167 0.2192
13.0200 4.3234 0.2228
13.0400 4.3302 0.2106
13.0600 4.3369 0.2093
13.0800 4.3436 0.2241
13.1000 4.3502 0.2108
13.1200 4.3569 0.2148
13.1400 4.3635 0.2235
13.1600 4.3701 0.2153
13.1800 4.3768 0.2171
13.2000 4.3834 0.2205
13.2200 4.3901 0.2132
13.2400 4.3968 0.2166
13.2600 4.4035 0.2275
13.2800 4.4102 0.2149
13.3000 4.4169 0.2179
13.3200 4.4235 0.2234
13.3400 4.4301 0.2138
13.3600 4.4367 0.2165
13.3800 4.4434 0.2316
13.4000 4.4501 0.2152
13.4200 4.4568 0.2169
13.4400 4.4635 0.2284
13.4600 4.4702 0.2186
13.4800 4.4769 0.2152
13.5000 4.4835 0.2289
13.5200 4.4901 0.2159
13.5400 4.4967 0.2209
13.5600 4.5034 0.2339
13.5800 4.5101 0.2165
13.6000 4.5168 0.2171
13.6200 4.5235 0.2331
13.6400 4.5301 0.2196
13.6600 4.5368 0.2235
13.6800 4.5435 0.2289
13.7000 4.5501 0.2180
13.7200 4.5568 0.2207
13.7400 4.5634 0.2322
13.7600 4.5701 0.2224
13.7800 4.5768 0.2206
13.8000 4.5835 0.2368
13.8200 4.5902 0.2171
13.8400 4.5969 0.2191
13.8600 4.6036 0.2368
13.8800 4.6102 0.2249
13.9000 4.6168 0.2182
13.9200 4.6234 0.2359
13.9400 4.6301 0.2201
13.9600 4.6369 0.2222
13.9800 4.6436 0.2403
14.0000 4.6502 0.2238
14.0200 4.6569 0.2223
14.0400 4.6635 0.2396
14.0600 4.6701 0.2244
14.0800 4.6767 0.2243
14.1000 4.6834 0.2408
14.1200 4.6901 0.2275
14.1400 4.6968 0.2217
14.1600 4.7035 0.2445
14.1800 4.7101 0.2229
14.2000 4.7168 0.2233
14.2200 4.7235 0.2386
14.2400 4.7301 0.2253
14.2600 4.7367 0.2260
14.2800 4.7434 0.2344
14.3000 4.7501 0.2314
14.3200 4.7568 0.2270
14.3400 4.7635 0.2373
14.3600 4.7702 0.2305
14.3800 4.7769 0.2267
14.4000 4.7836 0.2413
14.4200 4.7902 0.2279
14.4400 4.7968 0.2277
14.4600 4.8034 0.2432
14.4800 4.8101 0.2279
14.5000 4.8169 0.2317
14.5200 4.8236 0.2396
14.5400 4.8302 0.2350
14.5600 4.8369 0.2268
14.5800 4.8435 0.2420
14.6000 4.8501 0.2301
14.6200 4.8568 0.2354
14.6400 4.8634 0.2432
14.6600 4.8701 0.2262
14.6800 4.8768 0.2354
14.7000 4.8835 0.2417
14.7200 4.8902 0.2284
14.7400 4.8969 0.2383
14.7600 4.9035 0.2399
14.7800 4.9102 0.2332
14.8000 4.9168 0.2362
14.8200 4.9234 0.2433
14.8400 4.9301 0.2324
14.8600 4.9368 0.2349
14.8800 4.9435 0.2417
14.9000 4.9502 0.2355
14.9200 4.9569 0.2415
14.9400 4.9636 0.2355
14.9600 4.9701 0.2350
14.9800 4.9767 0.2442
15.0000 4.9834 0.2407
15.0200 4.9901 0.2338
15.0400 4.9968 0.2411
15.0600 5.0035 0.2419
15.0800 5.0102 0.2411
15.1000 5.0168 0.2398
15.1200 5.0235 0.2363
15.1400 5.0302 0.2401
15.1600 5.0368 0.2488
15.1800 5.0434 0.2352
15.2000 5.0501 0.2412
15.2200 5.0568 0.2470
15.2400 5.0635 0.2359
15.2600 5.0702 0.2449
15.2800 5.0769 0.2454
15.3000 5.0835 0.2367
15.3200 5.0902 0.2506
15.3400 5.0968 0.2435
15.3600 5.1034 0.2354
15.3800 5.1101 0.2514
15.4000 5.1168 0.2478
15.4200 5.1235 0.2361
15.4400 5.1302 0.2468
15.4600 5.1369 0.2481
15.4800 5.1436 0.2325
15.5000 5.1502 0.2524
15.5200 5.1568 0.2500
15.5400 5.1634 0.2346
15.5600 5.1701 0.2497
15.5800 5.1768 0.2518
15.6000 5.1835 0.2401
15.6200 5.1902 0.2491
15.6400 5.1968 0.2473
15.6600 5.2035 0.2424
15.6800 5.2101 0.2477
15.7000 5.2168 0.2500
15.7200 5.2234 0.2411
15.7400 5.2301 0.2577
15.7600 5.2368 0.2431
15.7800 5.2435 0.2418
15.8000 5.2501 0.2547
15.8200 5.2568 0.2463
15.8400 5.2635 0.2447
15.8600 5.2702 0.2514
15.8800 5.2768 0.2460
15.9000 5.2834 0.2509
15.9200 5.2901 0.2523
15.9400 5.2968 0.2436
15.9600 5.3035 0.2538
15.9800 5.3102 0.2550
16.0000 5.3169 0.2396
16.0200 5.3236 0.2578
16.0400 5.3302 0.2552
16.0600 5.3368 0.2451
16.0800 5.3434 0.2551
16.1000 5.3502 0.2488
16.1200 5.3569 0.2524
16.1400 5.3636 0.2530
16.1600 5.3702 0.2520
16.1800 5.3769 0.2476
16.2000 5.3835 0.2555
16.2200 5.3902 0.2518
16.2400 5.3968 0.2512
16.2600 5.4034 0.2524
16.2800 5.4101 0.2594
16.3000 5.4168 0.2536
16.3200 5.4235 0.2460
16.3400 5.4302 0.2576
16.3600 5.4368 0.2595
16.3800 5.4435 0.2465
16.4000 5.4502 0.2537
16.4200 5.4567 0.2560
16.4400 5.4634 0.2518
16.4600 5.4701 0.2608
16.4800 5.4768 0.2580
16.5000 5.4835 0.2494
16.5200 5.4902 0.2597
16.5400 5.4969 0.2545
16.5600 5.5036 0.2510
16.5800 5.5102 0.2650
16.6000 5.5168 0.2567
16.6200 5.5234 0.2469
16.6400 5.5301 0.2626
16.6600 5.5368 0.2704
16.6800 5.5435 0.2447
16.7000 5.5502 0.2584
16.7200 5.5569 0.2658
16.7400 5.5636 0.2524
16.7600 5.5702 0.2580
16.7800 5.5768 0.2636
16.8000 5.5834 0.2582
16.8200 5.5901 0.2662
16.8400 5.5968 0.2510
16.8600 5.6035 0.2498
16.8800 5.6102 0.2770
16.9000 5.6169 0.2607
16.9200 5.6236 0.2380
16.9400 5.6302 0.2720
16.9600 5.6368 0.2685
16.9800 5.6434 0.2406
17.0000 5.6501 0.2689
17.0200 5.6568 0.2693
17.0400 5.6635 0.2515
17.0600 5.6702 0.2659
17.0800 5.6769 0.2606
17.1000 5.6836 0.2529
17.1200 5.6902 0.2780
17.1400 5.6968 0.2588
17.1600 5.7034 0.2461
17.1800 5.7101 0.2779
17.2000 5.7168 0.2665
17.2200 5.7235 0.2440
17.2400 5.7301 0.2714
17.2600 5.7368 0.2674
17.2800 5.7435 0.2557
17.3000 5.7501 0.2691
17.3200 5.7568 0.2649
17.3400 5.7634 0.2584
17.3600 5.7701 0.2762
17.3800 5.7768 0.2596
17.4000 5.7835 0.2552
17.4200 5.7902 0.2773
17.4400 5.7969 0.2683
17.4600 5.8036 0.2506
17.4800 5.8102 0.2745
17.5000 5.8168 0.2681
17.5200 5.8234 0.2572
17.5400 5.8301 0.2776
17.5600 5.8368 0.2645
17.5800 5.8435 0.2609
17.6000 5.8502 0.2771
17.6200 5.8569 0.2630
17.6400 5.8636 0.2628
17.6600 5.8702 0.2803
17.6800 5.8768 0.2668
17.7000 5.8834 0.2631
17.7200 5.8901 0.2675
