Raw Data
Time Displacement Force
(s) (mm) (N)
0.0000 0.0000 -0.2076
0.0200 0.0000 -0.2100
0.0400 0.0008 -0.1477
0.0600 0.0039 -0.1316
0.0800 0.0094 -0.1614
0.1000 0.0151 -0.1533
0.1200 0.0210 -0.1293
0.1400 0.0276 -0.1169
0.1600 0.0350 -0.0981
0.1800 0.0424 -0.0863
0.2000 0.0496 -0.0635
0.2200 0.0565 -0.0362
0.2400 0.0632 -0.0198
0.2600 0.0699 0.0054
0.2800 0.0765 0.0371
0.3000 0.0832 0.0523
0.3200 0.0900 0.0863
0.3400 0.0967 0.1089
0.3600 0.1034 0.1214
0.3800 0.1100 0.1415
0.4000 0.1166 0.1564
0.4200 0.1233 0.1674
0.4400 0.1300 0.1907
0.4600 0.1367 0.2019
0.4800 0.1434 0.2149
0.5000 0.1501 0.2423
0.5200 0.1567 0.2384
0.5400 0.1634 0.2317
0.5600 0.1699 0.2497
0.5800 0.1766 0.2753
0.6000 0.1833 0.2935
0.6200 0.1900 0.3169
0.6400 0.1967 0.3137
0.6600 0.2034 0.3103
0.6800 0.2101 0.3154
0.7000 0.2167 0.3130
0.7200 0.2234 0.3086
0.7400 0.2300 0.3210
0.7600 0.2366 0.3188
0.7800 0.2433 0.3093
0.8000 0.2500 0.3226
0.8200 0.2567 0.3249
0.8400 0.2633 0.3167
0.8600 0.2700 0.3238
0.8800 0.2767 0.3226
0.9000 0.2833 0.3170
0.9200 0.2899 0.3269
0.9400 0.2965 0.3252
0.9600 0.3032 0.3185
0.9800 0.3099 0.3297
1.0000 0.3166 0.3285
1.0200 0.3233 0.3193
1.0400 0.3300 0.3341
1.0600 0.3367 0.3286
1.0800 0.3433 0.3288
1.1000 0.3499 0.3350
1.1200 0.3566 0.3287
1.1400 0.3633 0.3285
1.1600 0.3700 0.3393
1.1800 0.3767 0.3340
1.2000 0.3834 0.3366
1.2200 0.3901 0.3373
1.2400 0.3968 0.3344
1.2600 0.4034 0.3326
1.2800 0.4100 0.3396
1.3000 0.4167 0.3356
1.3200 0.4233 0.3358
1.3400 0.4300 0.3408
1.3600 0.4367 0.3346
1.3800 0.4434 0.3349
1.4000 0.4501 0.3378
1.4200 0.4567 0.3349
1.4400 0.4633 0.3349
1.4600 0.4699 0.3380
1.4800 0.4765 0.3395
1.5000 0.4832 0.3344
1.5200 0.4899 0.3378
1.5400 0.4966 0.3361
1.5600 0.5033 0.3325
1.5800 0.5100 0.3380
1.6000 0.5167 0.3358
1.6200 0.5233 0.3260
1.6400 0.5299 0.3335
1.6600 0.5366 0.3388
1.6800 0.5433 0.3271
1.7000 0.5500 0.3362
1.7200 0.5567 0.3318
1.7400 0.5634 0.3242
1.7600 0.5700 0.3304
1.7800 0.5767 0.3319
1.8000 0.5834 0.3238
1.8200 0.5900 0.3289
1.8400 0.5966 0.3223
1.8600 0.6033 0.3245
1.8800 0.6100 0.3242
1.9000 0.6167 0.3285
1.9200 0.6234 0.3235
1.9400 0.6301 0.3213
1.9600 0.6367 0.3222
1.9800 0.6434 0.3210
2.0000 0.6500 0.3162
2.0200 0.6566 0.3247
2.0400 0.6633 0.3219
2.0600 0.6700 0.3097
2.0800 0.6767 0.3171
2.1000 0.6834 0.3168
2.1200 0.6901 0.3100
2.1400 0.6967 0.3167
2.1600 0.7034 0.3150
2.1800 0.7100 0.3088
2.2000 0.7166 0.3202
2.2200 0.7233 0.3106
2.2400 0.7300 0.3090
2.2600 0.7367 0.3147
2.2800 0.7434 0.3082
2.3000 0.7500 0.3033
2.3200 0.7567 0.3170
2.3400 0.7634 0.3053
2.3600 0.7700 0.3039
2.3800 0.7766 0.3166
2.4000 0.7833 0.3071
2.4200 0.7900 0.2960
2.4400 0.7966 0.3155
2.4600 0.8033 0.3081
2.4800 0.8100 0.2978
2.5000 0.8167 0.3151
2.5200 0.8234 0.3053
2.5400 0.8300 0.2960
2.5600 0.8366 0.3160
2.5800 0.8433 0.3074
2.6000 0.8500 0.2938
2.6200 0.8567 0.3144
2.6400 0.8634 0.2985
2.6600 0.8701 0.2975
2.6800 0.8767 0.3130
2.7000 0.8834 0.2947
2.7200 0.8900 0.3002
2.7400 0.8966 0.3129
2.7600 0.9033 0.2985
2.7800 0.9100 0.2963
2.8000 0.9167 0.3063
2.8200 0.9234 0.3016
2.8400 0.9301 0.2904
2.8600 0.9367 0.3020
2.8800 0.9434 0.3018
2.9000 0.9500 0.3016
2.9200 0.9566 0.2971
2.9400 0.9632 0.2974
2.9600 0.9699 0.3046
2.9800 0.9767 0.2984
3.0000 0.9833 0.2957
3.0200 0.9900 0.2995
3.0400 0.9967 0.2953
3.0600 1.0034 0.3029
3.0800 1.0100 0.2992
3.1000 1.0165 0.2939
3.1200 1.0232 0.3028
3.1400 1.0299 0.2946
3.1600 1.0367 0.2928
3.1800 1.0434 0.2992
3.2000 1.0500 0.2979
3.2200 1.0567 0.2939
3.2400 1.0634 0.2975
3.2600 1.0700 0.2935
3.2800 1.0766 0.2943
3.3000 1.0833 0.3019
3.3200 1.0900 0.2961
3.3400 1.0967 0.2895
3.3600 1.1034 0.3066
3.3800 1.1101 0.2945
3.4000 1.1168 0.2856
3.4200 1.1235 0.3000
3.4400 1.1301 0.2941
3.4600 1.1367 0.2828
3.4800 1.1433 0.2989
3.5000 1.1500 0.2900
3.5200 1.1567 0.2901
3.5400 1.1634 0.3009
3.5600 1.1701 0.2879
3.5800 1.1767 0.2861
3.6000 1.1834 0.2985
3.6200 1.1900 0.2951
3.6400 1.1966 0.2881
3.6600 1.2032 0.2961
3.6800 1.2100 0.2851
3.7000 1.2167 0.2836
3.7200 1.2234 0.2953
3.7400 1.2300 0.2873
3.7600 1.2367 0.2888
3.7800 1.2434 0.2961
3.8000 1.2500 0.2797
3.8200 1.2566 0.2875
3.8400 1.2633 0.2968
3.8600 1.2700 0.2860
3.8800 1.2767 0.2823
3.9000 1.2833 0.2987
3.9200 1.2900 0.2824
3.9400 1.2967 0.2820
3.9600 1.3034 0.2939
3.9800 1.3100 0.2846
4.0000 1.3166 0.2860
4.0200 1.3232 0.2928
4.0400 1.3299 0.2791
4.0600 1.3367 0.2884
4.0800 1.3434 0.2948
4.1000 1.3501 0.2787
4.1200 1.3567 0.2853
4.1400 1.3634 0.2953
4.1600 1.3700 0.2763
4.1800 1.3766 0.2835
4.2000 1.3833 0.2915
4.2200 1.3900 0.2805
4.2400 1.3967 0.2886
4.2600 1.4034 0.2845
4.2800 1.4101 0.2778
4.3000 1.4168 0.2853
4.3200 1.4234 0.2838
4.3400 1.4300 0.2764
4.3600 1.4366 0.2878
4.3800 1.4433 0.2867
4.4000 1.4500 0.2785
4.4200 1.4567 0.2804
4.4400 1.4633 0.2826
4.4600 1.4700 0.2801
4.4800 1.4767 0.2866
4.5000 1.4834 0.2765
4.5200 1.4900 0.2822
4.5400 1.4966 0.2816
4.5600 1.5032 0.2799
4.5800 1.5099 0.2781
4.6000 1.5166 0.2828
4.6200 1.5233 0.2818
4.6400 1.5300 0.2753
4.6600 1.5367 0.2759
4.6800 1.5434 0.2829
4.7000 1.5500 0.2771
4.7200 1.5566 0.2750
4.7400 1.5633 0.2797
4.7600 1.5700 0.2794
4.7800 1.5767 0.2710
4.8000 1.5834 0.2773
4.8200 1.5901 0.2766
4.8400 1.5968 0.2735
4.8600 1.6034 0.2796
4.8800 1.6100 0.2733
4.9000 1.6166 0.2806
4.9200 1.6232 0.2746
4.9400 1.6299 0.2753
4.9600 1.6367 0.2747
4.9800 1.6434 0.2737
5.0000 1.6501 0.2708
5.0200 1.6568 0.2741
5.0400 1.6634 0.2713
5.0600 1.6700 0.2704
5.0800 1.6766 0.2706
5.1000 1.6832 0.2746
5.1200 1.6899 0.2696
5.1400 1.6966 0.2711
5.1600 1.7034 0.2705
5.1800 1.7100 0.2744
5.2000 1.7167 0.2667
5.2200 1.7234 0.2679
5.2400 1.7300 0.2698
5.2600 1.7366 0.2679
5.2800 1.7432 0.2751
5.3000 1.7499 0.2699
5.3200 1.7567 0.2663
5.3400 1.7634 0.2659
5.3600 1.7700 0.2681
5.3800 1.7767 0.2687
5.4000 1.7834 0.2690
5.4200 1.7900 0.2685
5.4400 1.7966 0.2676
5.4600 1.8033 0.2624
5.4800 1.8099 0.2727
5.5000 1.8167 0.2695
5.5200 1.8234 0.2633
5.5400 1.8301 0.2745
5.5600 1.8368 0.2727
5.5800 1.8435 0.2562
5.6000 1.8501 0.2763
5.6200 1.8567 0.2691
5.6400 1.8633 0.2586
5.6600 1.8700 0.2778
5.6800 1.8767 0.2627
5.7000 1.8834 0.2560
5.7200 1.8900 0.2850
5.7400 1.8967 0.2558
5.7600 1.9034 0.2621
5.7800 1.9100 0.2770
5.8000 1.9166 0.2550
5.8200 1.9232 0.2680
5.8400 1.9299 0.2749
5.8600 1.9366 0.2549
5.8800 1.9433 0.2701
5.9000 1.9500 0.2716
5.9200 1.9567 0.2534
5.9400 1.9633 0.2715
5.9600 1.9700 0.2670
5.9800 1.9766 0.2552
6.0000 1.9832 0.2694
6.0200 1.9899 0.2606
6.0400 1.9966 0.2546
6.0600 2.0033 0.2745
6.0800 2.0100 0.2590
6.1000 2.0167 0.2566
6.1200 2.0234 0.2682
6.1400 2.0301 0.2580
6.1600 2.0367 0.2590
6.1800 2.0433 0.2667
6.2000 2.0500 0.2584
6.2200 2.0567 0.2626
6.2400 2.0634 0.2578
6.2600 2.0701 0.2541
6.2800 2.0767 0.2638
6.3000 2.0834 0.2598
6.3200 2.0900 0.2537
6.3400 2.0966 0.2636
6.3600 2.1033 0.2569
6.3800 2.1099 0.2564
6.4000 2.1167 0.2665
6.4200 2.1234 0.2553
6.4400 2.1300 0.2565
6.4600 2.1367 0.2610
6.4800 2.1434 0.2519
6.5000 2.1501 0.2571
6.5200 2.1567 0.2580
6.5400 2.1633 0.2512
6.5600 2.1700 0.2624
6.5800 2.1766 0.2518
6.6000 2.1833 0.2506
6.6200 2.1900 0.2621
6.6400 2.1967 0.2506
6.6600 2.2034 0.2480
6.6800 2.2101 0.2614
6.7000 2.2166 0.2482
6.7200 2.2232 0.2508
6.7400 2.2299 0.2650
6.7600 2.2366 0.2453
6.7800 2.2433 0.2468
6.8000 2.2500 0.2601
6.8200 2.2567 0.2404
6.8400 2.2634 0.2514
6.8600 2.2700 0.2608
6.8800 2.2766 0.2467
6.9000 2.2833 0.2511
6.9200 2.2899 0.2601
6.9400 2.2967 0.2428
6.9600 2.3034 0.2489
6.9800 2.3100 0.2563
7.0000 2.3167 0.2449
7.0200 2.3234 0.2519
7.0400 2.3301 0.2455
7.0600 2.3367 0.2468
7.0800 2.3433 0.2525
7.1000 2.3500 0.2491
7.1200 2.3566 0.2415
7.1400 2.3633 0.2516
7.1600 2.3700 0.2464
7.1800 2.3767 0.2435
7.2000 2.3834 0.2468
7.2200 2.3901 0.2473
7.2400 2.3967 0.2433
7.2600 2.4033 0.2475
7.2800 2.4099 0.2427
7.3000 2.4166 0.2494
7.3200 2.4234 0.2487
7.3400 2.4300 0.2415
7.3600 2.4367 0.2485
7.3800 2.4434 0.2469
7.4000 2.4500 0.2399
7.4200 2.4566 0.2528
7.4400 2.4632 0.2493
7.4600 2.4699 0.2457
7.4800 2.4766 0.2474
7.5000 2.4833 0.2421
7.5200 2.4900 0.2431
7.5400 2.4966 0.2471
7.5600 2.5033 0.2461
7.5800 2.5100 0.2434
7.6000 2.5167 0.2462
7.6200 2.5233 0.2383
7.6400 2.5300 0.2453
7.6600 2.5366 0.2463
7.6800 2.5433 0.2417
7.7000 2.5500 0.2386
7.7200 2.5567 0.2454
7.7400 2.5634 0.2413
7.7600 2.5701 0.2375
7.7800 2.5767 0.2446
7.8000 2.5833 0.2445
7.8200 2.5900 0.2393
7.8400 2.5967 0.2457
7.8600 2.6034 0.2411
7.8800 2.6101 0.2421
7.9000 2.6167 0.2400
7.9200 2.6234 0.2380
7.9400 2.6300 0.2433
7.9600 2.6367 0.2391
7.9800 2.6433 0.2325
8.0000 2.6499 0.2446
8.0200 2.6566 0.2426
8.0400 2.6633 0.2314
8.0600 2.6700 0.2446
8.0800 2.6767 0.2451
8.1000 2.6834 0.2304
8.1200 2.6900 0.2409
8.1400 2.6967 0.2403
8.1600 2.7032 0.2327
8.1800 2.7099 0.2479
8.2000 2.7166 0.2373
8.2200 2.7233 0.2305
8.2400 2.7300 0.2403
8.2600 2.7367 0.2389
8.2800 2.7434 0.2316
8.3000 2.7501 0.2444
8.3200 2.7567 0.2377
8.3400 2.7633 0.2316
8.3600 2.7699 0.2380
8.3800 2.7766 0.2362
8.4000 2.7834 0.2311
8.4200 2.7900 0.2434
8.4400 2.7967 0.2319
8.4600 2.8034 0.2292
8.4800 2.8101 0.2411
8.5000 2.8167 0.2358
8.5200 2.8233 0.2302
8.5400 2.8299 0.2405
8.5600 2.8367 0.2345
8.5800 2.8434 0.2240
8.6000 2.8501 0.2359
8.6200 2.8567 0.2332
8.6400 2.8634 0.2296
8.6600 2.8701 0.2315
8.6800 2.8767 0.2328
8.7000 2.8833 0.2301
8.7200 2.8899 0.2343
8.7400 2.8966 0.2290
8.7600 2.9033 0.2275
8.7800 2.9100 0.2292
8.8000 2.9167 0.2305
8.8200 2.9234 0.2228
8.8400 2.9300 0.2273
8.8600 2.9366 0.2350
8.8800 2.9432 0.2261
8.9000 2.9499 0.2261
8.9200 2.9566 0.2335
8.9400 2.9633 0.2221
8.9600 2.9700 0.2275
8.9800 2.9766 0.2304
9.0000 2.9833 0.2249
9.0200 2.9900 0.2208
9.0400 2.9967 0.2332
9.0600 3.0033 0.2210
9.0800 3.0099 0.2237
9.1000 3.0166 0.2337
9.1200 3.0233 0.2182
9.1400 3.0300 0.2214
9.1600 3.0367 0.2262
9.1800 3.0434 0.2194
9.2000 3.0501 0.2204
9.2200 3.0567 0.2288
9.2400 3.0633 0.2179
9.2600 3.0699 0.2217
9.2800 3.0766 0.2287
9.3000 3.0833 0.2217
9.3200 3.0900 0.2187
9.3400 3.0967 0.2263
9.3600 3.1034 0.2203
9.3800 3.1101 0.2194
9.4000 3.1167 0.2272
9.4200 3.1233 0.2215
9.4400 3.1299 0.2178
9.4600 3.1366 0.2278
9.4800 3.1433 0.2182
9.5000 3.1500 0.2201
9.5200 3.1567 0.2262
9.5400 3.1634 0.2221
9.5600 3.1701 0.2157
9.5800 3.1767 0.2287
9.6000 3.1833 0.2198
9.6200 3.1899 0.2211
9.6400 3.1966 0.2258
9.6600 3.2033 0.2156
9.6800 3.2100 0.2204
9.7000 3.2167 0.2238
9.7200 3.2233 0.2216
9.7400 3.2300 0.2207
9.7600 3.2366 0.2236
9.7800 3.2432 0.2123
9.8000 3.2499 0.2250
9.8200 3.2566 0.2262
9.8400 3.2633 0.2187
9.8600 3.2701 0.2188
9.8800 3.2767 0.2189
9.9000 3.2834 0.2132
9.9200 3.2901 0.2210
9.9400 3.2967 0.2215
9.9600 3.3033 0.2165
9.9800 3.3099 0.2162
10.0000 3.3167 0.2237
10.0200 3.3234 0.2138
10.0400 3.3301 0.2219
10.0600 3.3368 0.2192
10.0800 3.3434 0.2183
10.1000 3.3500 0.2153
10.1200 3.3567 0.2143
10.1400 3.3633 0.2171
10.1600 3.3699 0.2191
10.1800 3.3766 0.2142
10.2000 3.3833 0.2159
10.2200 3.3900 0.2177
10.2400 3.3967 0.2160
10.2600 3.4034 0.2160
10.2800 3.4100 0.2153
10.3000 3.4167 0.2106
10.3200 3.4233 0.2148
10.3400 3.4299 0.2174
10.3600 3.4366 0.2075
10.3800 3.4433 0.2171
10.4000 3.4500 0.2080
10.4200 3.4567 0.2075
10.4400 3.4634 0.2185
10.4600 3.4700 0.2102
10.4800 3.4767 0.2095
10.5000 3.4833 0.2176
10.5200 3.4900 0.2062
10.5400 3.4966 0.2115
10.5600 3.5034 0.2149
10.5800 3.5100 0.2072
10.6000 3.5167 0.2122
10.6200 3.5234 0.2133
10.6400 3.5301 0.2003
10.6600 3.5367 0.2134
10.6800 3.5433 0.2100
10.7000 3.5500 0.2010
10.7200 3.5566 0.2152
10.7400 3.5633 0.2053
10.7600 3.5700 0.2050
10.7800 3.5767 0.2136
10.8000 3.5834 0.2070
10.8200 3.5901 0.2054
10.8400 3.5967 0.2090
10.8600 3.6033 0.2049
10.8800 3.6099 0.2051
10.9000 3.6166 0.2078
10.9200 3.6233 0.2069
10.9400 3.6300 0.2077
10.9600 3.6367 0.2088
10.9800 3.6434 0.2039
11.0000 3.6501 0.2038
11.0200 3.6567 0.2061
11.0400 3.6633 0.2077
11.0600 3.6699 0.2041
11.0800 3.6766 0.2067
11.1000 3.6833 0.2079
11.1200 3.6900 0.2043
11.1400 3.6967 0.2025
11.1600 3.7033 0.2113
11.1800 3.7100 0.2013
11.2000 3.7167 0.1993
11.2200 3.7233 0.2059
11.2400 3.7299 0.2055
11.2600 3.7366 0.1996
11.2800 3.7433 0.2077
11.3000 3.7500 0.2041
11.3200 3.7568 0.1983
11.3400 3.7635 0.2084
11.3600 3.7701 0.2023
11.3800 3.7768 0.1954
11.4000 3.7833 0.2075
11.4200 3.7899 0.2069
11.4400 3.7966 0.1950
11.4600 3.8033 0.2104
11.4800 3.8101 0.2000
11.5000 3.8168 0.1962
11.5200 3.8234 0.2087
11.5400 3.8301 0.1996
11.5600 3.8367 0.1963
11.5800 3.8433 0.2154
11.6000 3.8499 0.1989
11.6200 3.8566 0.1941
11.6400 3.8633 0.2120
11.6600 3.8700 0.2019
11.6800 3.8766 0.1932
11.7000 3.8833 0.2092
11.7200 3.8900 0.1976
11.7400 3.8966 0.1977
11.7600 3.9032 0.2074
11.7800 3.9099 0.1984
11.8000 3.9165 0.1993
11.8200 3.9233 0.2074
11.8400 3.9300 0.2007
11.8600 3.9367 0.1947
11.8800 3.9434 0.2041
11.9000 3.9501 0.1973
11.9200 3.9567 0.1958
11.9400 3.9633 0.2056
11.9600 3.9699 0.2001
11.9800 3.9766 0.1956
12.0000 3.9833 0.2046
12.0200 3.9901 0.1920
12.0400 3.9967 0.2000
12.0600 4.0034 0.2063
12.0800 4.0101 0.1992
12.1000 4.0167 0.1884
12.1200 4.0234 0.2080
12.1400 4.0300 0.1985
12.1600 4.0366 0.1913
12.1800 4.0433 0.2063
12.2000 4.0500 0.2007
12.2200 4.0567 0.1874
12.2400 4.0634 0.2033
12.2600 4.0701 0.1978
12.2800 4.0768 0.1863
12.3000 4.0833 0.2014
12.3200 4.0899 0.2033
12.3400 4.0966 0.1838
12.3600 4.1033 0.2045
12.3800 4.1100 0.1970
12.4000 4.1167 0.1839
12.4200 4.1234 0.2031
12.4400 4.1301 0.1981
12.4600 4.1367 0.1878
12.4800 4.1433 0.1979
12.5000 4.1499 0.1934
12.5200 4.1565 0.1820
12.5400 4.1632 0.2067
12.5600 4.1700 0.1940
12.5800 4.1767 0.1817
12.6000 4.1833 0.2064
12.6200 4.1900 0.1926
12.6400 4.1967 0.1833
12.6600 4.2034 0.2034
12.6800 4.2100 0.1912
12.7000 4.2166 0.1877
12.7200 4.2233 0.1963
12.7400 4.2300 0.1903
12.7600 4.2367 0.1818
12.7800 4.2434 0.2017
12.8000 4.2501 0.1925
12.8200 4.2568 0.1807
12.8400 4.2634 0.1982
12.8600 4.2700 0.1954
12.8800 4.2766 0.1817
12.9000 4.2833 0.1966
12.9200 4.2900 0.1940
12.9400 4.2967 0.1769
12.9600 4.3034 0.1916
12.9800 4.3101 0.1963
13.0000 4.3167 0.1826
13.0200 4.3233 0.1937
13.0400 4.3300 0.1939
13.0600 4.3366 0.1759
13.0800 4.3433 0.1984
13.1000 4.3500 0.1976
13.1200 4.3567 0.1746
13.1400 4.3634 0.1957
13.1600 4.3701 0.1976
13.1800 4.3767 0.1691
13.2000 4.3833 0.1958
13.2200 4.3899 0.1971
13.2400 4.3966 0.1686
13.2600 4.4032 0.1992
13.2800 4.4100 0.1974
13.3000 4.4167 0.1665
13.3200 4.4233 0.1966
13.3400 4.4300 0.1923
13.3600 4.4367 0.1677
13.3800 4.4433 0.1951
13.4000 4.4499 0.1909
13.4200 4.4566 0.1711
13.4400 4.4633 0.1945
13.4600 4.4700 0.1874
13.4800 4.4768 0.1668
13.5000 4.4834 0.1941
13.5200 4.4901 0.1899
13.5400 4.4968 0.1727
13.5600 4.5034 0.1910
13.5800 4.5100 0.1845
13.6000 4.5166 0.1741
13.6200 4.5233 0.1937
13.6400 4.5300 0.1809
13.6600 4.5367 0.1730
13.6800 4.5434 0.1928
13.7000 4.5500 0.1862
13.7200 4.5567 0.1625
13.7400 4.5633 0.1949
13.7600 4.5699 0.1878
13.7800 4.5766 0.1646
13.8000 4.5833 0.1869
13.8200 4.5900 0.1889
13.8400 4.5967 0.1659
13.8600 4.6034 0.1901
13.8800 4.6101 0.1896
13.9000 4.6167 0.1630
13.9200 4.6234 0.1863
13.9400 4.6299 0.1852
13.9600 4.6366 0.1654
13.9800 4.6433 0.1899
14.0000 4.6500 0.1849
14.0200 4.6567 0.1639
14.0400 4.6634 0.1867
14.0600 4.6700 0.1841
14.0800 4.6767 0.1721
14.1000 4.6833 0.1832
14.1200 4.6899 0.1810
14.1400 4.6965 0.1711
14.1600 4.7032 0.1844
14.1800 4.7099 0.1758
14.2000 4.7167 0.1711
14.2200 4.7234 0.1844
14.2400 4.7301 0.1750
14.2600 4.7368 0.1689
14.2800 4.7434 0.1806
14.3000 4.7500 0.1738
14.3200 4.7566 0.1814
14.3400 4.7633 0.1735
14.3600 4.7700 0.1726
14.3800 4.7767 0.1806
14.4000 4.7834 0.1742
14.4200 4.7901 0.1660
14.4400 4.7968 0.1797
14.4600 4.8034 0.1731
14.4800 4.8100 0.1712
14.5000 4.8166 0.1821
14.5200 4.8233 0.1702
14.5400 4.8300 0.1702
14.5600 4.8367 0.1828
14.5800 4.8433 0.1694
14.6000 4.8500 0.1733
14.6200 4.8567 0.1834
14.6400 4.8633 0.1650
14.6600 4.8699 0.1735
14.6800 4.8765 0.1773
14.7000 4.8832 0.1683
14.7200 4.8900 0.1740
14.7400 4.8967 0.1777
14.7600 4.9033 0.1626
14.7800 4.9100 0.1759
14.8000 4.9167 0.1763
14.8200 4.9234 0.1626
14.8400 4.9300 0.1719
14.8600 4.9366 0.1766
14.8800 4.9433 0.1610
14.9000 4.9500 0.1707
14.9200 4.9567 0.1768
14.9400 4.9634 0.1632
14.9600 4.9700 0.1698
14.9800 4.9767 0.1728
15.0000 4.9833 0.1593
15.0200 4.9900 0.1797
15.0400 4.9966 0.1733
15.0600 5.0033 0.1600
15.0800 5.0100 0.1751
15.1000 5.0167 0.1690
15.1200 5.0234 0.1600
15.1400 5.0301 0.1747
15.1600 5.0368 0.1680
15.1800 5.0434 0.1629
15.2000 5.0500 0.1758
15.2200 5.0566 0.1626
15.2400 5.0633 0.1658
15.2600 5.0700 0.1781
15.2800 5.0767 0.1647
15.3000 5.0834 0.1629
15.3200 5.0900 0.1753
15.3400 5.0967 0.1626
15.3600 5.1034 0.1634
15.3800 5.1100 0.1623
15.4000 5.1166 0.1690
15.4200 5.1232 0.1632
15.4400 5.1299 0.1662
15.4600 5.1366 0.1658
15.4800 5.1433 0.1599
15.5000 5.1500 0.1640
15.5200 5.1567 0.1683
15.5400 5.1633 0.1599
15.5600 5.1699 0.1627
15.5800 5.1766 0.1715
15.6000 5.1833 0.1607
15.6200 5.1900 0.1580
15.6400 5.1967 0.1686
15.6600 5.2034 0.1578
15.6800 5.2101 0.1637
15.7000 5.2168 0.1686
15.7200 5.2234 0.1487
15.7400 5.2300 0.1629
15.7600 5.2366 0.1713
15.7800 5.2433 0.1546
15.8000 5.2500 0.1573
15.8200 5.2567 0.1713
15.8400 5.2634 0.1504
15.8600 5.2701 0.1610
15.8800 5.2768 0.1703
15.9000 5.2834 0.1474
15.9200 5.2900 0.1626
15.9400 5.2966 0.1735
15.9600 5.3032 0.1436
15.9800 5.3100 0.1626
16.0000 5.3167 0.1688
16.0200 5.3234 0.1491
16.0400 5.3300 0.1574
16.0600 5.3367 0.1689
16.0800 5.3434 0.1519
16.1000 5.3500 0.1577
16.1200 5.3566 0.1647
16.1400 5.3633 0.1536
16.1600 5.3700 0.1585
16.1800 5.3767 0.1588
16.2000 5.3834 0.1516
16.2200 5.3900 0.1582
16.2400 5.3967 0.1597
16.2600 5.4034 0.1524
16.2800 5.4100 0.1509
16.3000 5.4166 0.1629
16.3200 5.4233 0.1587
16.3400 5.4300 0.1451
16.3600 5.4367 0.1638
16.3800 5.4434 0.1562
16.4000 5.4501 0.1471
16.4200 5.4568 0.1648
16.4400 5.4634 0.1547
16.4600 5.4700 0.1454
16.4800 5.4766 0.1667
16.5000 5.4832 0.1514
16.5200 5.4900 0.1466
16.5400 5.4966 0.1637
16.5600 5.5033 0.1487
16.5800 5.5099 0.1456
16.6000 5.5166 0.1672
16.6200 5.5233 0.1446
16.6400 5.5300 0.1511
16.6600 5.5366 0.1642
16.6800 5.5433 0.1440
16.7000 5.5500 0.1505
16.7200 5.5567 0.1625
16.7400 5.5634 0.1431
16.7600 5.5700 0.1550
16.7800 5.5767 0.1612
16.8000 5.5834 0.1403
16.8200 5.5900 0.1490
16.8400 5.5966 0.1599
16.8600 5.6033 0.1491
16.8800 5.6099 0.1474
16.9000 5.6166 0.1573
16.9200 5.6233 0.1494
16.9400 5.6300 0.1496
16.9600 5.6367 0.1555
16.9800 5.6434 0.1489
17.0000 5.6500 0.1452
17.0200 5.6566 0.1602
17.0400 5.6633 0.1457
17.0600 5.6700 0.1522
17.0800 5.6767 0.1560
17.1000 5.6834 0.1458
17.1200 5.6901 0.1499
17.1400 5.6967 0.1568
17.1600 5.7034 0.1443
17.1800 5.7100 0.1478
17.2000 5.7166 0.1552
17.2200 5.7233 0.1489
17.2400 5.7300 0.1490
17.2600 5.7367 0.1524
17.2800 5.7434 0.1494
17.3000 5.7501 0.1471
17.3200 5.7568 0.1505
17.3400 5.7634 0.1472
17.3600 5.7700 0.1428
17.3800 5.7766 0.1518
17.4000 5.7832 0.1490
17.4200 5.7899 0.1430
17.4400 5.7967 0.1479
17.4600 5.8034 0.1457
17.4800 5.8101 0.1467
17.5000 5.8168 0.1496
17.5200 5.8234 0.1457
17.5400 5.8300 0.1406
17.5600 5.8366 0.1567
17.5800 5.8432 0.1425
17.6000 5.8499 0.1405
17.6200 5.8567 0.1533
17.6400 5.8633 0.1472
17.6600 5.8700 0.1404
17.6800 5.8767 0.1543
17.7000 5.8834 0.1316
17.7200 5.8900 0.1435
17.7400 5.8966 0.1514
