Raw Data
Time Displacement Force
(s) (mm) (N)
0.0000 0.0000 0.1859
0.0200 0.0000 0.1813
0.0400 0.0008 0.2391
0.0600 0.0040 0.3160
0.0800 0.0094 0.2997
0.1000 0.0152 0.3286
0.1200 0.0211 0.3990
0.1400 0.0277 0.4180
0.1600 0.0350 0.4680
0.1800 0.0425 0.5300
0.2000 0.0496 0.5655
0.2200 0.0565 0.6132
0.2400 0.0632 0.6779
0.2600 0.0698 0.7133
0.2800 0.0765 0.7647
0.3000 0.0832 0.8116
0.3200 0.0900 0.8532
0.3400 0.0967 0.9089
0.3600 0.1033 0.9549
0.3800 0.1100 0.9925
0.4000 0.1166 1.0509
0.4200 0.1233 1.1061
0.4400 0.1300 1.1441
0.4600 0.1367 1.1879
0.4800 0.1434 1.2435
0.5000 0.1501 1.2761
0.5200 0.1568 1.2898
0.5400 0.1634 1.2919
0.5600 0.1700 1.2918
0.5800 0.1766 1.2947
0.6000 0.1833 1.2985
0.6200 0.1900 1.2934
0.6400 0.1967 1.2924
0.6600 0.2034 1.3024
0.6800 0.2101 1.2985
0.7000 0.2167 1.2930
0.7200 0.2234 1.2979
0.7400 0.2300 1.3048
0.7600 0.2366 1.3016
0.7800 0.2433 1.3060
0.8000 0.2500 1.3030
0.8200 0.2567 1.3067
0.8400 0.2633 1.3160
0.8600 0.2700 1.3046
0.8800 0.2767 1.3022
0.9000 0.2833 1.3242
0.9200 0.2899 1.3071
0.9400 0.2965 1.3079
0.9600 0.3032 1.3294
0.9800 0.3099 1.3071
1.0000 0.3166 1.3065
1.0200 0.3233 1.3305
1.0400 0.3300 1.3103
1.0600 0.3367 1.3184
1.0800 0.3433 1.3298
1.1000 0.3499 1.3073
1.1200 0.3566 1.3189
1.1400 0.3633 1.3290
1.1600 0.3700 1.3130
1.1800 0.3767 1.3185
1.2000 0.3833 1.3260
1.2200 0.3900 1.3131
1.2400 0.3967 1.3243
1.2600 0.4034 1.3242
1.2800 0.4100 1.3121
1.3000 0.4167 1.3205
1.3200 0.4234 1.3217
1.3400 0.4300 1.3098
1.3600 0.4367 1.3176
1.3800 0.4434 1.3153
1.4000 0.4501 1.3109
1.4200 0.4568 1.3099
1.4400 0.4634 1.3112
1.4600 0.4700 1.3120
1.4800 0.4766 1.3129
1.5000 0.4833 1.3033
1.5200 0.4900 1.3042
1.5400 0.4967 1.3042
1.5600 0.5033 1.3033
1.5800 0.5100 1.2981
1.6000 0.5167 1.2925
1.6200 0.5233 1.2948
1.6400 0.5299 1.3064
1.6600 0.5366 1.2911
1.6800 0.5433 1.2945
1.7000 0.5500 1.2984
1.7200 0.5567 1.2760
1.7400 0.5634 1.2878
1.7600 0.5700 1.2954
1.7800 0.5767 1.2780
1.8000 0.5834 1.2776
1.8200 0.5900 1.2851
1.8400 0.5966 1.2680
1.8600 0.6033 1.2795
1.8800 0.6100 1.2812
1.9000 0.6167 1.2613
1.9200 0.6234 1.2736
1.9400 0.6301 1.2740
1.9600 0.6368 1.2519
1.9800 0.6434 1.2690
2.0000 0.6500 1.2658
2.0200 0.6566 1.2510
2.0400 0.6633 1.2610
2.0600 0.6700 1.2595
2.0800 0.6767 1.2492
2.1000 0.6834 1.2651
2.1200 0.6901 1.2484
2.1400 0.6967 1.2383
2.1600 0.7034 1.2522
2.1800 0.7100 1.2438
2.2000 0.7166 1.2380
2.2200 0.7232 1.2496
2.2400 0.7300 1.2357
2.2600 0.7367 1.2341
2.2800 0.7434 1.2454
2.3000 0.7500 1.2378
2.3200 0.7567 1.2333
2.3400 0.7634 1.2370
2.3600 0.7700 1.2261
2.3800 0.7766 1.2283
2.4000 0.7832 1.2410
2.4200 0.7899 1.2229
2.4400 0.7966 1.2230
2.4600 0.8033 1.2280
2.4800 0.8100 1.2247
2.5000 0.8167 1.2217
2.5200 0.8234 1.2255
2.5400 0.8300 1.2210
2.5600 0.8366 1.2161
2.5800 0.8433 1.2162
2.6000 0.8500 1.2151
2.6200 0.8567 1.2132
2.6400 0.8634 1.2153
2.6600 0.8701 1.2090
2.6800 0.8767 1.2123
2.7000 0.8834 1.2085
2.7200 0.8900 1.2129
2.7400 0.8966 1.2063
2.7600 0.9033 1.2036
2.7800 0.9100 1.2035
2.8000 0.9167 1.1998
2.8200 0.9234 1.2052
2.8400 0.9301 1.2001
2.8600 0.9367 1.1940
2.8800 0.9434 1.2025
2.9000 0.9500 1.2028
2.9200 0.9566 1.1919
2.9400 0.9633 1.2032
2.9600 0.9700 1.1934
2.9800 0.9767 1.1899
3.0000 0.9833 1.1964
3.0200 0.9900 1.1913
3.0400 0.9967 1.1882
3.0600 1.0034 1.1951
3.0800 1.0100 1.1833
3.1000 1.0166 1.1947
3.1200 1.0232 1.1962
3.1400 1.0299 1.1830
3.1600 1.0367 1.1891
3.1800 1.0434 1.1876
3.2000 1.0500 1.1826
3.2200 1.0567 1.1901
3.2400 1.0634 1.1831
3.2600 1.0700 1.1801
3.2800 1.0766 1.1892
3.3000 1.0833 1.1865
3.3200 1.0900 1.1821
3.3400 1.0967 1.1884
3.3600 1.1034 1.1777
3.3800 1.1101 1.1851
3.4000 1.1168 1.1821
3.4200 1.1234 1.1700
3.4400 1.1301 1.1818
3.4600 1.1367 1.1788
3.4800 1.1433 1.1676
3.5000 1.1500 1.1846
3.5200 1.1567 1.1775
3.5400 1.1634 1.1686
3.5600 1.1701 1.1803
3.5800 1.1768 1.1650
3.6000 1.1834 1.1709
3.6200 1.1900 1.1774
3.6400 1.1966 1.1580
3.6600 1.2032 1.1648
3.6800 1.2100 1.1787
3.7000 1.2167 1.1523
3.7200 1.2234 1.1602
3.7400 1.2300 1.1749
3.7600 1.2367 1.1551
3.7800 1.2434 1.1570
3.8000 1.2500 1.1674
3.8200 1.2566 1.1537
3.8400 1.2633 1.1550
3.8600 1.2700 1.1574
3.8800 1.2767 1.1522
3.9000 1.2833 1.1474
3.9200 1.2900 1.1580
3.9400 1.2967 1.1480
3.9600 1.3034 1.1469
3.9800 1.3100 1.1522
4.0000 1.3166 1.1489
4.0200 1.3233 1.1386
4.0400 1.3299 1.1404
4.0600 1.3367 1.1467
4.0800 1.3434 1.1381
4.1000 1.3501 1.1344
4.1200 1.3567 1.1415
4.1400 1.3634 1.1324
4.1600 1.3700 1.1387
4.1800 1.3766 1.1383
4.2000 1.3833 1.1241
4.2200 1.3900 1.1346
4.2400 1.3967 1.1328
4.2600 1.4034 1.1197
4.2800 1.4101 1.1331
4.3000 1.4168 1.1320
4.3200 1.4234 1.1091
4.3400 1.4300 1.1302
4.3600 1.4366 1.1339
4.3800 1.4433 1.1136
4.4000 1.4500 1.1303
4.4200 1.4567 1.1286
4.4400 1.4633 1.1075
4.4600 1.4700 1.1256
4.4800 1.4767 1.1215
4.5000 1.4834 1.1094
4.5200 1.4900 1.1154
4.5400 1.4966 1.1189
4.5600 1.5032 1.1060
4.5800 1.5099 1.1150
4.6000 1.5166 1.1146
4.6200 1.5233 1.1081
4.6400 1.5300 1.1115
4.6600 1.5367 1.1074
4.6800 1.5434 1.1024
4.7000 1.5500 1.1096
4.7200 1.5566 1.1094
4.7400 1.5633 1.0987
4.7600 1.5700 1.1054
4.7800 1.5767 1.1056
4.8000 1.5834 1.0982
4.8200 1.5901 1.1018
4.8400 1.5968 1.1010
4.8600 1.6034 1.0955
4.8800 1.6100 1.0953
4.9000 1.6166 1.0949
4.9200 1.6233 1.0982
4.9400 1.6300 1.0929
4.9600 1.6367 1.0949
4.9800 1.6434 1.0900
5.0000 1.6501 1.0959
5.0200 1.6568 1.0956
5.0400 1.6634 1.0868
5.0600 1.6700 1.0802
5.0800 1.6766 1.0936
5.1000 1.6832 1.0863
5.1200 1.6899 1.0831
5.1400 1.6966 1.0902
5.1600 1.7033 1.0803
5.1800 1.7100 1.0781
5.2000 1.7167 1.0921
5.2200 1.7234 1.0789
5.2400 1.7300 1.0834
5.2600 1.7366 1.0834
5.2800 1.7432 1.0693
5.3000 1.7499 1.0773
5.3200 1.7566 1.0869
5.3400 1.7633 1.0645
5.3600 1.7700 1.0672
5.3800 1.7767 1.0836
5.4000 1.7833 1.0664
5.4200 1.7900 1.0701
5.4400 1.7966 1.0763
5.4600 1.8033 1.0616
5.4800 1.8100 1.0683
5.5000 1.8167 1.0737
5.5200 1.8234 1.0581
5.5400 1.8301 1.0712
5.5600 1.8368 1.0656
5.5800 1.8434 1.0528
5.6000 1.8501 1.0656
5.6200 1.8567 1.0707
5.6400 1.8633 1.0525
5.6600 1.8700 1.0622
5.6800 1.8767 1.0620
5.7000 1.8834 1.0507
5.7200 1.8901 1.0533
5.7400 1.8967 1.0611
5.7600 1.9034 1.0499
5.7800 1.9100 1.0505
5.8000 1.9166 1.0578
5.8200 1.9233 1.0491
5.8400 1.9299 1.0452
5.8600 1.9367 1.0578
5.8800 1.9433 1.0438
5.9000 1.9500 1.0391
5.9200 1.9567 1.0546
5.9400 1.9633 1.0363
5.9600 1.9700 1.0367
5.9800 1.9766 1.0565
6.0000 1.9832 1.0369
6.0200 1.9899 1.0353
6.0400 1.9966 1.0488
6.0600 2.0033 1.0295
6.0800 2.0100 1.0359
6.1000 2.0167 1.0399
6.1200 2.0234 1.0239
6.1400 2.0301 1.0321
6.1600 2.0367 1.0376
6.1800 2.0433 1.0247
6.2000 2.0500 1.0329
6.2200 2.0567 1.0327
6.2400 2.0634 1.0276
6.2600 2.0701 1.0212
6.2800 2.0767 1.0266
6.3000 2.0834 1.0199
6.3200 2.0900 1.0223
6.3400 2.0966 1.0198
6.3600 2.1033 1.0202
6.3800 2.1099 1.0183
6.4000 2.1167 1.0159
6.4200 2.1234 1.0212
6.4400 2.1300 1.0149
6.4600 2.1367 1.0104
6.4800 2.1434 1.0192
6.5000 2.1501 1.0050
6.5200 2.1567 1.0126
6.5400 2.1633 1.0180
6.5600 2.1700 1.0011
6.5800 2.1767 1.0075
6.6000 2.1833 1.0124
6.6200 2.1900 1.0021
6.6400 2.1967 1.0028
6.6600 2.2034 1.0096
6.6800 2.2101 0.9967
6.7000 2.2167 0.9983
6.7200 2.2232 0.9999
6.7400 2.2299 1.0002
6.7600 2.2366 0.9936
6.7800 2.2433 0.9967
6.8000 2.2500 0.9991
6.8200 2.2567 0.9967
6.8400 2.2634 0.9974
6.8600 2.2700 0.9889
6.8800 2.2767 0.9852
6.9000 2.2833 0.9988
6.9200 2.2899 0.9830
6.9400 2.2966 0.9834
6.9600 2.3034 0.9955
6.9800 2.3100 0.9798
7.0000 2.3167 0.9814
7.0200 2.3234 0.9985
7.0400 2.3301 0.9829
7.0600 2.3367 0.9798
7.0800 2.3433 0.9922
7.1000 2.3500 0.9746
7.1200 2.3566 0.9808
7.1400 2.3634 0.9854
7.1600 2.3700 0.9741
7.1800 2.3767 0.9790
7.2000 2.3834 0.9878
7.2200 2.3901 0.9695
7.2400 2.3967 0.9767
7.2600 2.4033 0.9776
7.2800 2.4099 0.9662
7.3000 2.4167 0.9758
7.3200 2.4234 0.9717
7.3400 2.4300 0.9611
7.3600 2.4367 0.9776
7.3800 2.4434 0.9670
7.4000 2.4500 0.9639
7.4200 2.4566 0.9683
7.4400 2.4632 0.9667
7.4600 2.4699 0.9676
7.4800 2.4766 0.9651
7.5000 2.4833 0.9602
7.5200 2.4900 0.9669
7.5400 2.4967 0.9627
7.5600 2.5033 0.9574
7.5800 2.5100 0.9608
7.6000 2.5166 0.9617
7.6200 2.5233 0.9587
7.6400 2.5299 0.9578
7.6600 2.5367 0.9537
7.6800 2.5434 0.9546
7.7000 2.5501 0.9563
7.7200 2.5567 0.9441
7.7400 2.5634 0.9533
7.7600 2.5701 0.9498
7.7800 2.5767 0.9470
7.8000 2.5833 0.9541
7.8200 2.5900 0.9515
7.8400 2.5967 0.9402
7.8600 2.6034 0.9521
7.8800 2.6101 0.9438
7.9000 2.6167 0.9403
7.9200 2.6234 0.9509
7.9400 2.6301 0.9427
7.9600 2.6367 0.9306
7.9800 2.6433 0.9482
8.0000 2.6500 0.9411
8.0200 2.6566 0.9372
8.0400 2.6634 0.9417
8.0600 2.6700 0.9347
8.0800 2.6767 0.9287
8.1000 2.6834 0.9443
8.1200 2.6901 0.9284
8.1400 2.6967 0.9249
8.1600 2.7032 0.9420
8.1800 2.7099 0.9276
8.2000 2.7166 0.9224
8.2200 2.7233 0.9355
8.2400 2.7300 0.9197
8.2600 2.7367 0.9278
8.2800 2.7434 0.9322
8.3000 2.7501 0.9161
8.3200 2.7567 0.9272
8.3400 2.7633 0.9225
8.3600 2.7699 0.9174
8.3800 2.7766 0.9227
8.4000 2.7833 0.9200
8.4200 2.7900 0.9153
8.4400 2.7967 0.9201
8.4600 2.8034 0.9125
8.4800 2.8101 0.9204
8.5000 2.8167 0.9135
8.5200 2.8233 0.9041
8.5400 2.8300 0.9159
8.5600 2.8366 0.9135
8.5800 2.8434 0.9021
8.6000 2.8501 0.9149
8.6200 2.8567 0.9130
8.6400 2.8634 0.9015
8.6600 2.8701 0.9115
8.6800 2.8767 0.9049
8.7000 2.8833 0.8991
8.7200 2.8899 0.9120
8.7400 2.8966 0.8953
8.7600 2.9033 0.8952
8.7800 2.9100 0.9111
8.8000 2.9167 0.8947
8.8200 2.9234 0.8982
8.8400 2.9301 0.9091
8.8600 2.9367 0.8905
8.8800 2.9432 0.8987
8.9000 2.9499 0.9062
8.9200 2.9566 0.8867
8.9400 2.9633 0.8981
8.9600 2.9700 0.8958
8.9800 2.9766 0.8862
9.0000 2.9833 0.9002
9.0200 2.9900 0.8973
9.0400 2.9967 0.8841
9.0600 3.0033 0.8964
9.0800 3.0099 0.8890
9.1000 3.0166 0.8799
9.1200 3.0234 0.8931
9.1400 3.0301 0.8887
9.1600 3.0367 0.8748
9.1800 3.0434 0.8936
9.2000 3.0501 0.8850
9.2200 3.0567 0.8772
9.2400 3.0633 0.8925
9.2600 3.0699 0.8844
9.2800 3.0766 0.8727
9.3000 3.0834 0.8844
9.3200 3.0901 0.8811
9.3400 3.0967 0.8706
9.3600 3.1034 0.8856
9.3800 3.1101 0.8811
9.4000 3.1167 0.8677
9.4200 3.1233 0.8785
9.4400 3.1299 0.8802
9.4600 3.1366 0.8697
9.4800 3.1433 0.8752
9.5000 3.1500 0.8738
9.5200 3.1567 0.8628
9.5400 3.1634 0.8724
9.5600 3.1701 0.8717
9.5800 3.1767 0.8584
9.6000 3.1833 0.8746
9.6200 3.1899 0.8699
9.6400 3.1966 0.8592
9.6600 3.2033 0.8696
9.6800 3.2100 0.8671
9.7000 3.2167 0.8565
9.7200 3.2233 0.8706
9.7400 3.2300 0.8620
9.7600 3.2367 0.8604
9.7800 3.2433 0.8647
9.8000 3.2499 0.8623
9.8200 3.2566 0.8569
9.8400 3.2633 0.8617
9.8600 3.2701 0.8588
9.8800 3.2767 0.8532
9.9000 3.2834 0.8596
9.9200 3.2901 0.8504
9.9400 3.2967 0.8519
9.9600 3.3033 0.8600
9.9800 3.3099 0.8542
10.0000 3.3167 0.8523
10.0200 3.3234 0.8512
10.0400 3.3301 0.8494
10.0600 3.3368 0.8501
10.0800 3.3434 0.8502
10.1000 3.3501 0.8467
10.1200 3.3567 0.8465
10.1400 3.3633 0.8469
10.1600 3.3699 0.8455
10.1800 3.3766 0.8484
10.2000 3.3833 0.8442
10.2200 3.3900 0.8408
10.2400 3.3967 0.8406
10.2600 3.4034 0.8455
10.2800 3.4101 0.8355
10.3000 3.4167 0.8390
10.3200 3.4233 0.8371
10.3400 3.4299 0.8398
10.3600 3.4366 0.8329
10.3800 3.4433 0.8351
10.4000 3.4500 0.8340
10.4200 3.4567 0.8290
10.4400 3.4634 0.8287
10.4600 3.4701 0.8362
10.4800 3.4767 0.8297
10.5000 3.4833 0.8227
10.5200 3.4900 0.8313
10.5400 3.4966 0.8283
10.5600 3.5034 0.8182
10.5800 3.5100 0.8255
10.6000 3.5167 0.8215
10.6200 3.5234 0.8212
10.6400 3.5301 0.8249
10.6600 3.5367 0.8152
10.6800 3.5433 0.8173
10.7000 3.5499 0.8305
10.7200 3.5566 0.8117
10.7400 3.5633 0.8061
10.7600 3.5700 0.8248
10.7800 3.5767 0.8053
10.8000 3.5834 0.8125
10.8200 3.5901 0.8143
10.8400 3.5967 0.8025
10.8600 3.6033 0.8122
10.8800 3.6099 0.8117
10.9000 3.6166 0.8019
10.9200 3.6234 0.8108
10.9400 3.6301 0.8042
10.9600 3.6367 0.7999
10.9800 3.6434 0.8062
11.0000 3.6501 0.8004
11.0200 3.6567 0.7987
11.0400 3.6633 0.8029
11.0600 3.6699 0.7975
11.0800 3.6766 0.8042
11.1000 3.6833 0.7962
11.1200 3.6900 0.7857
11.1400 3.6967 0.7996
11.1600 3.7033 0.7958
11.1800 3.7100 0.7862
11.2000 3.7167 0.7983
11.2200 3.7233 0.7888
11.2400 3.7299 0.7831
11.2600 3.7366 0.7999
11.2800 3.7433 0.7829
11.3000 3.7500 0.7855
11.3200 3.7567 0.7972
11.3400 3.7634 0.7776
11.3600 3.7701 0.7790
11.3800 3.7768 0.7954
11.4000 3.7833 0.7738
11.4200 3.7899 0.7848
11.4400 3.7966 0.7909
11.4600 3.8033 0.7744
11.4800 3.8101 0.7835
11.5000 3.8168 0.7864
11.5200 3.8234 0.7700
11.5400 3.8301 0.7822
11.5600 3.8367 0.7792
11.5800 3.8433 0.7716
11.6000 3.8499 0.7795
11.6200 3.8566 0.7761
11.6400 3.8633 0.7649
11.6600 3.8699 0.7755
11.6800 3.8766 0.7770
11.7000 3.8833 0.7704
11.7200 3.8900 0.7761
11.7400 3.8967 0.7658
11.7600 3.9033 0.7637
11.7800 3.9099 0.7740
11.8000 3.9165 0.7696
11.8200 3.9233 0.7662
11.8400 3.9300 0.7693
11.8600 3.9367 0.7618
11.8800 3.9434 0.7668
11.9000 3.9501 0.7658
11.9200 3.9567 0.7604
11.9400 3.9633 0.7575
11.9600 3.9699 0.7615
11.9800 3.9766 0.7616
12.0000 3.9833 0.7617
12.0200 3.9901 0.7543
12.0400 3.9967 0.7597
12.0600 4.0034 0.7580
12.0800 4.0101 0.7569
12.1000 4.0167 0.7567
12.1200 4.0234 0.7586
12.1400 4.0300 0.7500
12.1600 4.0366 0.7551
12.1800 4.0433 0.7543
12.2000 4.0500 0.7483
12.2200 4.0567 0.7521
12.2400 4.0634 0.7487
12.2600 4.0701 0.7430
12.2800 4.0768 0.7487
12.3000 4.0834 0.7484
12.3200 4.0899 0.7433
12.3400 4.0966 0.7492
12.3600 4.1033 0.7416
12.3800 4.1100 0.7385
12.4000 4.1167 0.7462
12.4200 4.1234 0.7394
12.4400 4.1300 0.7375
12.4600 4.1367 0.7450
12.4800 4.1433 0.7337
12.5000 4.1499 0.7385
12.5200 4.1566 0.7386
12.5400 4.1633 0.7306
12.5600 4.1700 0.7279
12.5800 4.1767 0.7374
12.6000 4.1834 0.7258
12.6200 4.1900 0.7283
12.6400 4.1967 0.7338
12.6600 4.2034 0.7253
12.6800 4.2100 0.7299
12.7000 4.2166 0.7312
12.7200 4.2233 0.7236
12.7400 4.2300 0.7300
12.7600 4.2367 0.7226
12.7800 4.2434 0.7214
12.8000 4.2501 0.7233
12.8200 4.2568 0.7216
12.8400 4.2634 0.7197
12.8600 4.2700 0.7208
12.8800 4.2766 0.7240
12.9000 4.2833 0.7211
12.9200 4.2900 0.7163
12.9400 4.2967 0.7183
12.9600 4.3034 0.7129
12.9800 4.3101 0.7096
13.0000 4.3167 0.7192
13.0200 4.3234 0.7150
13.0400 4.3300 0.7083
13.0600 4.3366 0.7173
13.0800 4.3433 0.7124
13.1000 4.3500 0.7008
13.1200 4.3567 0.7177
13.1400 4.3634 0.7080
13.1600 4.3700 0.7029
13.1800 4.3767 0.7083
13.2000 4.3834 0.7011
13.2200 4.3899 0.7008
13.2400 4.3966 0.7151
13.2600 4.4032 0.7018
13.2800 4.4100 0.7007
13.3000 4.4167 0.7130
13.3200 4.4234 0.6973
13.3400 4.4301 0.6991
13.3600 4.4367 0.7064
13.3800 4.4434 0.6935
13.4000 4.4500 0.7034
13.4200 4.4566 0.7041
13.4400 4.4633 0.6889
13.4600 4.4700 0.6984
13.4800 4.4767 0.7044
13.5000 4.4834 0.6886
13.5200 4.4901 0.6952
13.5400 4.4968 0.7009
13.5600 4.5034 0.6850
13.5800 4.5100 0.6975
13.6000 4.5166 0.6940
13.6200 4.5233 0.6914
13.6400 4.5300 0.6931
13.6600 4.5367 0.6883
13.6800 4.5434 0.6877
13.7000 4.5500 0.6977
13.7200 4.5567 0.6821
13.7400 4.5633 0.6834
13.7600 4.5699 0.6897
13.7800 4.5766 0.6817
13.8000 4.5833 0.6840
13.8200 4.5900 0.6834
13.8400 4.5967 0.6753
13.8600 4.6034 0.6894
13.8800 4.6100 0.6835
13.9000 4.6167 0.6722
13.9200 4.6234 0.6830
13.9400 4.6299 0.6814
13.9600 4.6366 0.6721
13.9800 4.6433 0.6828
14.0000 4.6500 0.6761
14.0200 4.6567 0.6736
14.0400 4.6633 0.6769
14.0600 4.6700 0.6696
14.0800 4.6766 0.6748
14.1000 4.6833 0.6737
14.1200 4.6899 0.6683
14.1400 4.6966 0.6698
14.1600 4.7033 0.6724
14.1800 4.7101 0.6646
14.2000 4.7167 0.6708
14.2200 4.7234 0.6707
14.2400 4.7301 0.6618
14.2600 4.7368 0.6692
14.2800 4.7434 0.6629
14.3000 4.7500 0.6608
14.3200 4.7566 0.6726
14.3400 4.7633 0.6586
14.3600 4.7700 0.6594
14.3800 4.7767 0.6656
14.4000 4.7834 0.6603
14.4200 4.7901 0.6555
14.4400 4.7968 0.6613
14.4600 4.8034 0.6532
14.4800 4.8100 0.6571
14.5000 4.8166 0.6626
14.5200 4.8233 0.6523
14.5400 4.8300 0.6531
14.5600 4.8367 0.6543
14.5800 4.8434 0.6488
14.6000 4.8500 0.6516
14.6200 4.8567 0.6509
14.6400 4.8633 0.6512
14.6600 4.8699 0.6499
14.6800 4.8766 0.6515
14.7000 4.8832 0.6500
14.7200 4.8900 0.6474
14.7400 4.8967 0.6408
14.7600 4.9033 0.6422
14.7800 4.9100 0.6482
14.8000 4.9167 0.6365
14.8200 4.9233 0.6434
14.8400 4.9300 0.6422
14.8600 4.9366 0.6334
14.8800 4.9433 0.6426
14.9000 4.9500 0.6396
14.9200 4.9567 0.6296
14.9400 4.9634 0.6414
14.9600 4.9701 0.6357
14.9800 4.9768 0.6244
15.0000 4.9834 0.6351
15.0200 4.9900 0.6355
15.0400 4.9966 0.6213
15.0600 5.0033 0.6372
15.0800 5.0100 0.6310
15.1000 5.0167 0.6205
15.1200 5.0234 0.6370
15.1400 5.0301 0.6238
15.1600 5.0367 0.6131
15.1800 5.0434 0.6366
15.2000 5.0500 0.6178
15.2200 5.0566 0.6115
15.2400 5.0633 0.6331
15.2600 5.0700 0.6103
15.2800 5.0767 0.6172
15.3000 5.0834 0.6317
15.3200 5.0901 0.6065
15.3400 5.0967 0.6120
15.3600 5.1034 0.6236
15.3800 5.1100 0.6015
15.4000 5.1166 0.6158
15.4200 5.1232 0.6204
15.4400 5.1299 0.6011
15.4600 5.1366 0.6074
15.4800 5.1433 0.6213
15.5000 5.1500 0.6019
15.5200 5.1567 0.6145
15.5400 5.1633 0.6088
15.5600 5.1699 0.5965
15.5800 5.1766 0.6117
15.6000 5.1833 0.6072
15.6200 5.1900 0.5929
15.6400 5.1967 0.6077
15.6600 5.2033 0.6002
15.6800 5.2100 0.5972
15.7000 5.2167 0.6050
15.7200 5.2234 0.5960
15.7400 5.2300 0.5986
15.7600 5.2367 0.5979
15.7800 5.2434 0.5898
15.8000 5.2501 0.5966
15.8200 5.2568 0.5959
15.8400 5.2634 0.5873
15.8600 5.2701 0.5980
15.8800 5.2768 0.5930
15.9000 5.2834 0.5847
15.9200 5.2900 0.5965
15.9400 5.2966 0.5907
15.9600 5.3032 0.5833
15.9800 5.3100 0.5958
16.0000 5.3167 0.5836
16.0200 5.3234 0.5850
16.0400 5.3300 0.5900
16.0600 5.3367 0.5810
16.0800 5.3434 0.5838
16.1000 5.3500 0.5920
16.1200 5.3566 0.5746
16.1400 5.3633 0.5861
16.1600 5.3700 0.5853
16.1800 5.3767 0.5671
16.2000 5.3834 0.5846
16.2200 5.3900 0.5830
16.2400 5.3967 0.5672
16.2600 5.4034 0.5821
16.2800 5.4100 0.5789
16.3000 5.4167 0.5697
16.3200 5.4233 0.5798
16.3400 5.4300 0.5735
16.3600 5.4367 0.5671
16.3800 5.4434 0.5759
16.4000 5.4501 0.5711
16.4200 5.4568 0.5626
16.4400 5.4634 0.5746
16.4600 5.4700 0.5664
16.4800 5.4765 0.5678
16.5000 5.4832 0.5719
16.5200 5.4900 0.5653
16.5400 5.4967 0.5655
16.5600 5.5034 0.5628
16.5800 5.5101 0.5658
16.6000 5.5167 0.5641
16.6200 5.5234 0.5574
16.6400 5.5300 0.5647
16.6600 5.5366 0.5609
16.6800 5.5433 0.5623
16.7000 5.5500 0.5604
16.7200 5.5567 0.5598
16.7400 5.5634 0.5573
16.7600 5.5700 0.5637
16.7800 5.5767 0.5534
16.8000 5.5834 0.5502
16.8200 5.5900 0.5580
16.8400 5.5966 0.5533
16.8600 5.6033 0.5503
16.8800 5.6099 0.5622
16.9000 5.6166 0.5500
16.9200 5.6233 0.5477
16.9400 5.6300 0.5563
16.9600 5.6367 0.5471
16.9800 5.6434 0.5460
17.0000 5.6500 0.5543
17.0200 5.6566 0.5470
17.0400 5.6633 0.5417
17.0600 5.6700 0.5577
17.0800 5.6767 0.5453
17.1000 5.6834 0.5448
17.1200 5.6901 0.5506
17.1400 5.6967 0.5389
17.1600 5.7034 0.5391
17.1800 5.7100 0.5502
17.2000 5.7166 0.5343
17.2200 5.7233 0.5411
17.2400 5.7300 0.5467
17.2600 5.7367 0.5319
17.2800 5.7433 0.5401
17.3000 5.7500 0.5474
17.3200 5.7567 0.5295
17.3400 5.7634 0.5383
17.3600 5.7701 0.5354
17.3800 5.7766 0.5296
17.4000 5.7833 0.5376
17.4200 5.7899 0.5349
17.4400 5.7967 0.5250
17.4600 5.8034 0.5350
17.4800 5.8101 0.5273
17.5000 5.8167 0.5288
17.5200 5.8234 0.5329
17.5400 5.8300 0.5232
17.5600 5.8366 0.5280
17.5800 5.8432 0.5273
17.6000 5.8499 0.5223
17.6200 5.8567 0.5259
17.6400 5.8634 0.5205
17.6600 5.8700 0.5212
17.6800 5.8767 0.5273
17.7000 5.8834 0.5126
17.7200 5.8900 0.5222
17.7400 5.8966 0.5235
17.7600 5.9033 0.5135
