Raw Data
Time Displacement Force
(s) (mm) (N)
0.0000 0.0000 -0.0070
0.0200 0.0001 0.0105
0.0400 0.0022 0.0735
0.0600 0.0101 0.0673
0.0800 0.0220 -0.0143
0.1000 0.0345 -0.0030
0.1200 0.0472 0.0261
0.1400 0.0606 -0.0037
0.1600 0.0747 0.0050
0.1800 0.0888 0.0095
0.2000 0.1027 -0.0062
0.2200 0.1163 0.0017
0.2400 0.1296 0.0123
0.2600 0.1429 -0.0024
0.2800 0.1563 0.0084
0.3000 0.1697 0.0154
0.3200 0.1830 -0.0027
0.3400 0.1964 0.0097
0.3600 0.2097 0.0082
0.3800 0.2230 -0.0027
0.4000 0.2364 0.0196
0.4200 0.2497 0.0001
0.4400 0.2630 -0.0008
0.4600 0.2763 0.0121
0.4800 0.2897 0.0071
0.5000 0.3030 -0.0054
0.5200 0.3164 0.0124
0.5400 0.3297 0.0059
0.5600 0.3430 -0.0030
0.5800 0.3564 0.0127
0.6000 0.3697 0.0031
0.6200 0.3830 -0.0020
0.6400 0.3964 0.0162
0.6600 0.4098 -0.0031
0.6800 0.4231 0.0034
0.7000 0.4364 0.0132
0.7200 0.4497 -0.0030
0.7400 0.4631 0.0013
0.7600 0.4764 0.0095
0.7800 0.4897 0.0016
0.8000 0.5030 0.0002
0.8200 0.5164 0.0124
0.8400 0.5297 0.0045
0.8600 0.5431 -0.0002
0.8800 0.5564 0.0132
0.9000 0.5697 0.0053
0.9200 0.5830 -0.0016
0.9400 0.5963 0.0101
0.9600 0.6097 0.0015
0.9800 0.6230 0.0021
1.0000 0.6364 0.0102
1.0200 0.6497 0.0075
1.0400 0.6631 0.0037
1.0600 0.6764 0.0131
1.0800 0.6898 0.0044
1.1000 0.7031 0.0062
1.1200 0.7164 0.0079
1.1400 0.7297 0.0005
1.1600 0.7431 0.0092
1.1800 0.7564 0.0107
1.2000 0.7697 0.0040
1.2200 0.7831 0.0051
1.2400 0.7964 0.0115
1.2600 0.8097 0.0040
1.2800 0.8230 0.0093
1.3000 0.8364 0.0017
1.3200 0.8497 0.0075
1.3400 0.8630 0.0109
1.3600 0.8764 0.0021
1.3800 0.8897 0.0084
1.4000 0.9031 0.0133
1.4200 0.9164 -0.0023
1.4400 0.9297 0.0103
1.4600 0.9431 0.0141
1.4800 0.9564 -0.0005
1.5000 0.9698 0.0104
1.5200 0.9831 0.0065
1.5400 0.9964 0.0026
1.5600 1.0096 0.0146
1.5800 1.0229 0.0095
1.6000 1.0363 0.0026
1.6200 1.0496 0.0119
1.6400 1.0630 0.0047
1.6600 1.0764 0.0048
1.6800 1.0897 0.0086
1.7000 1.1031 0.0083
1.7200 1.1165 0.0050
1.7400 1.1298 0.0077
1.7600 1.1432 0.0081
1.7800 1.1565 0.0074
1.8000 1.1698 0.0074
1.8200 1.1831 0.0130
1.8400 1.1964 0.0057
1.8600 1.2098 0.0083
1.8800 1.2231 0.0093
1.9000 1.2364 0.0062
1.9200 1.2497 0.0090
1.9400 1.2631 0.0118
1.9600 1.2764 -0.0002
1.9800 1.2897 0.0152
2.0000 1.3030 0.0162
2.0200 1.3163 0.0049
2.0400 1.3297 0.0109
2.0600 1.3430 0.0175
2.0800 1.3563 0.0070
2.1000 1.3697 0.0121
2.1200 1.3831 0.0160
2.1400 1.3965 0.0031
2.1600 1.4098 0.0114
2.1800 1.4231 0.0138
2.2000 1.4365 0.0081
2.2200 1.4498 0.0067
2.2400 1.4630 0.0187
2.2600 1.4763 0.0062
2.2800 1.4897 0.0096
2.3000 1.5030 0.0155
2.3200 1.5163 0.0085
2.3400 1.5296 0.0119
2.3600 1.5430 0.0161
2.3800 1.5564 0.0039
2.4000 1.5698 0.0147
2.4200 1.5831 0.0142
2.4400 1.5964 0.0032
2.4600 1.6098 0.0139
2.4800 1.6231 0.0183
2.5000 1.6364 0.0044
2.5200 1.6497 0.0135
2.5400 1.6631 0.0213
2.5600 1.6764 0.0028
2.5800 1.6898 0.0149
2.6000 1.7031 0.0125
2.6200 1.7164 0.0026
2.6400 1.7298 0.0146
2.6600 1.7431 0.0140
2.6800 1.7564 0.0008
2.7000 1.7697 0.0174
2.7200 1.7830 0.0160
2.7400 1.7964 0.0047
2.7600 1.8097 0.0181
2.7800 1.8230 0.0199
2.8000 1.8363 0.0011
2.8200 1.8497 0.0159
2.8400 1.8631 0.0142
2.8600 1.8764 0.0063
2.8800 1.8897 0.0161
2.9000 1.9031 0.0124
2.9200 1.9164 0.0073
2.9400 1.9298 0.0146
2.9600 1.9431 0.0169
2.9800 1.9564 0.0048
3.0000 1.9697 0.0204
3.0200 1.9831 0.0089
3.0400 1.9964 0.0045
3.0600 2.0097 0.0147
3.0800 2.0230 0.0160
3.1000 2.0363 0.0031
3.1200 2.0497 0.0197
3.1400 2.0630 0.0114
3.1600 2.0764 0.0065
3.1800 2.0897 0.0187
3.2000 2.1031 0.0133
3.2200 2.1165 0.0057
3.2400 2.1298 0.0211
3.2600 2.1431 0.0109
3.2800 2.1564 0.0077
3.3000 2.1698 0.0196
3.3200 2.1831 0.0113
3.3400 2.1964 0.0081
3.3600 2.2097 0.0169
3.3800 2.2231 0.0157
3.4000 2.2364 0.0094
3.4200 2.2497 0.0169
3.4400 2.2630 0.0114
3.4600 2.2764 0.0083
3.4800 2.2897 0.0129
3.5000 2.3031 0.0160
3.5200 2.3164 0.0097
3.5400 2.3297 0.0145
3.5600 2.3431 0.0134
3.5800 2.3564 0.0158
3.6000 2.3698 0.0167
3.6200 2.3831 0.0144
3.6400 2.3965 0.0100
3.6600 2.4098 0.0159
3.6800 2.4231 0.0089
3.7000 2.4364 0.0118
3.7200 2.4497 0.0155
3.7400 2.4631 0.0109
3.7600 2.4764 0.0104
3.7800 2.4897 0.0187
3.8000 2.5030 0.0104
3.8200 2.5163 0.0151
3.8400 2.5297 0.0154
3.8600 2.5430 0.0052
3.8800 2.5563 0.0138
3.9000 2.5697 0.0115
3.9200 2.5831 0.0080
3.9400 2.5965 0.0108
3.9600 2.6098 0.0150
3.9800 2.6231 0.0108
4.0000 2.6364 0.0146
4.0200 2.6498 0.0134
4.0400 2.6631 0.0123
4.0600 2.6764 0.0124
4.0800 2.6897 0.0168
4.1000 2.7030 0.0087
4.1200 2.7164 0.0149
4.1400 2.7297 0.0137
4.1600 2.7430 0.0135
4.1800 2.7563 0.0132
4.2000 2.7697 0.0143
4.2200 2.7830 0.0157
4.2400 2.7963 0.0200
4.2600 2.8097 0.0154
4.2800 2.8231 0.0115
4.3000 2.8364 0.0127
4.3200 2.8498 0.0160
4.3400 2.8631 0.0142
4.3600 2.8764 0.0172
4.3800 2.8898 0.0230
4.4000 2.9031 0.0099
4.4200 2.9164 0.0162
4.4400 2.9297 0.0205
4.4600 2.9430 0.0125
4.4800 2.9564 0.0118
4.5000 2.9697 0.0248
4.5200 2.9830 0.0160
4.5400 2.9963 0.0093
4.5600 3.0097 0.0202
4.5800 3.0231 0.0170
4.6000 3.0364 0.0131
4.6200 3.0497 0.0231
4.6400 3.0631 0.0169
4.6600 3.0764 0.0117
4.6800 3.0897 0.0206
4.7000 3.1030 0.0162
4.7200 3.1164 0.0085
4.7400 3.1298 0.0177
4.7600 3.1431 0.0160
4.7800 3.1564 0.0140
4.8000 3.1698 0.0201
4.8200 3.1831 0.0166
4.8400 3.1965 0.0123
4.8600 3.2097 0.0125
4.8800 3.2230 0.0243
4.9000 3.2363 0.0106
4.9200 3.2497 0.0133
4.9400 3.2630 0.0182
4.9600 3.2763 0.0137
4.9800 3.2897 0.0181
5.0000 3.3031 0.0232
5.0200 3.3165 0.0165
5.0400 3.3298 0.0155
5.0600 3.3431 0.0173
5.0800 3.3565 0.0143
5.1000 3.3698 0.0181
5.1200 3.3831 0.0187
5.1400 3.3964 0.0084
5.1600 3.4097 0.0171
5.1800 3.4230 0.0188
5.2000 3.4364 0.0136
5.2200 3.4497 0.0242
5.2400 3.4630 0.0163
5.2600 3.4763 0.0157
5.2800 3.4897 0.0155
5.3000 3.5030 0.0122
5.3200 3.5164 0.0142
5.3400 3.5297 0.0219
5.3600 3.5431 0.0074
5.3800 3.5564 0.0168
5.4000 3.5698 0.0224
5.4200 3.5831 0.0163
5.4400 3.5964 0.0168
5.4600 3.6098 0.0196
5.4800 3.6231 0.0087
5.5000 3.6364 0.0171
5.5200 3.6497 0.0180
5.5400 3.6630 0.0127
5.5600 3.6764 0.0178
5.5800 3.6897 0.0148
5.6000 3.7030 0.0151
5.6200 3.7163 0.0211
5.6400 3.7297 0.0132
5.6600 3.7430 0.0141
5.6800 3.7564 0.0229
5.7000 3.7697 0.0087
5.7200 3.7831 0.0168
5.7400 3.7964 0.0254
5.7600 3.8098 0.0064
5.7800 3.8231 0.0118
5.8000 3.8364 0.0258
5.8200 3.8498 0.0079
5.8400 3.8631 0.0226
5.8600 3.8764 0.0250
5.8800 3.8898 0.0069
5.9000 3.9031 0.0198
5.9200 3.9164 0.0221
5.9400 3.9297 0.0049
5.9600 3.9430 0.0222
5.9800 3.9563 0.0168
6.0000 3.9697 0.0147
6.0200 3.9831 0.0235
6.0400 3.9964 0.0165
6.0600 4.0097 0.0138
6.0800 4.0231 0.0215
6.1000 4.0365 0.0121
6.1200 4.0498 0.0108
6.1400 4.0631 0.0241
6.1600 4.0764 0.0104
6.1800 4.0898 0.0157
6.2000 4.1031 0.0172
6.2200 4.1164 0.0111
6.2400 4.1297 0.0182
6.2600 4.1430 0.0171
6.2800 4.1564 0.0068
6.3000 4.1697 0.0202
6.3200 4.1830 0.0125
6.3400 4.1963 0.0135
6.3600 4.2097 0.0170
6.3800 4.2230 0.0119
6.4000 4.2363 0.0168
6.4200 4.2497 0.0183
6.4400 4.2631 0.0116
6.4600 4.2764 0.0174
6.4800 4.2898 0.0164
6.5000 4.3031 0.0143
6.5200 4.3164 0.0140
6.5400 4.3298 0.0172
6.5600 4.3431 0.0146
6.5800 4.3564 0.0181
6.6000 4.3697 0.0149
6.6200 4.3830 0.0176
6.6400 4.3964 0.0241
6.6600 4.4097 0.0068
6.6800 4.4230 0.0152
6.7000 4.4363 0.0184
6.7200 4.4497 0.0097
6.7400 4.4630 0.0099
6.7600 4.4763 0.0165
6.7800 4.4897 0.0089
6.8000 4.5031 0.0175
6.8200 4.5164 0.0216
6.8400 4.5298 0.0078
6.8600 4.5431 0.0132
6.8800 4.5564 0.0227
6.9000 4.5698 0.0077
6.9200 4.5831 0.0147
6.9400 4.5964 0.0224
6.9600 4.6097 0.0083
6.9800 4.6230 0.0145
7.0000 4.6364 0.0248
7.0200 4.6497 0.0106
7.0400 4.6630 0.0163
7.0600 4.6763 0.0252
7.0800 4.6896 0.0087
7.1000 4.7030 0.0185
7.1200 4.7163 0.0207
7.1400 4.7297 0.0145
7.1600 4.7431 0.0124
7.1800 4.7565 0.0228
7.2000 4.7698 0.0141
7.2200 4.7832 0.0181
7.2400 4.7965 0.0229
7.2600 4.8098 0.0124
7.2800 4.8231 0.0111
7.3000 4.8364 0.0238
7.3200 4.8497 0.0143
7.3400 4.8630 0.0166
7.3600 4.8764 0.0198
7.3800 4.8897 0.0128
7.4000 4.9030 0.0214
7.4200 4.9163 0.0189
7.4400 4.9297 0.0113
7.4600 4.9431 0.0140
7.4800 4.9564 0.0243
7.5000 4.9698 0.0076
7.5200 4.9831 0.0159
7.5400 4.9965 0.0263
7.5600 5.0098 0.0118
7.5800 5.0231 0.0143
7.6000 5.0364 0.0304
7.6200 5.0498 0.0144
7.6400 5.0631 0.0120
7.6600 5.0764 0.0247
7.6800 5.0897 0.0184
7.7000 5.1030 0.0152
7.7200 5.1164 0.0281
7.7400 5.1297 0.0127
7.7600 5.1430 0.0127
7.7800 5.1563 0.0305
7.8000 5.1697 0.0266
7.8200 5.1830 0.0090
7.8400 5.1964 0.0266
7.8600 5.2097 0.0224
7.8800 5.2231 0.0089
7.9000 5.2365 0.0245
7.9200 5.2498 0.0196
7.9400 5.2631 0.0148
7.9600 5.2764 0.0281
7.9800 5.2898 0.0178
8.0000 5.3031 0.0110
8.0200 5.3164 0.0299
8.0400 5.3297 0.0139
8.0600 5.3430 0.0145
8.0800 5.3564 0.0236
8.1000 5.3697 0.0151
8.1200 5.3830 0.0225
8.1400 5.3963 0.0235
8.1600 5.4097 0.0118
8.1800 5.4230 0.0225
8.2000 5.4364 0.0229
8.2200 5.4497 0.0077
8.2400 5.4630 0.0239
8.2600 5.4764 0.0255
8.2800 5.4898 0.0066
8.3000 5.5031 0.0221
8.3200 5.5164 0.0193
8.3400 5.5298 0.0154
8.3600 5.5431 0.0279
8.3800 5.5564 0.0156
8.4000 5.5697 0.0203
8.4200 5.5830 0.0208
8.4400 5.5964 0.0244
8.4600 5.6097 0.0164
8.4800 5.6230 0.0222
8.5000 5.6363 0.0246
8.5200 5.6497 0.0224
8.5400 5.6630 0.0188
8.5600 5.6764 0.0248
8.5800 5.6897 0.0273
8.6000 5.7030 0.0206
8.6200 5.7164 0.0235
8.6400 5.7298 0.0250
8.6600 5.7431 0.0212
8.6800 5.7564 0.0245
8.7000 5.7698 0.0205
8.7200 5.7831 0.0194
8.7400 5.7965 0.0230
8.7600 5.8098 0.0252
8.7800 5.8230 0.0227
8.8000 5.8364 0.0191
8.8200 5.8497 0.0223
8.8400 5.8630 0.0171
8.8600 5.8763 0.0222
8.8800 5.8897 0.0194
8.9000 5.9030 0.0183
8.9200 5.9164 0.0193
8.9400 5.9297 0.0212
8.9600 5.9431 0.0168
8.9800 5.9565 0.0240
9.0000 5.9698 0.0243
9.0200 5.9831 0.0153
9.0400 5.9964 0.0216
9.0600 6.0097 0.0249
9.0800 6.0231 0.0135
9.1000 6.0364 0.0239
9.1200 6.0497 0.0156
9.1400 6.0630 0.0168
9.1600 6.0764 0.0302
9.1800 6.0897 0.0204
9.2000 6.1030 0.0130
9.2200 6.1163 0.0271
9.2400 6.1297 0.0209
9.2600 6.1430 0.0120
9.2800 6.1564 0.0268
9.3000 6.1697 0.0197
9.3200 6.1830 0.0180
9.3400 6.1964 0.0217
9.3600 6.2098 0.0175
9.3800 6.2231 0.0206
9.4000 6.2364 0.0247
9.4200 6.2498 0.0203
9.4400 6.2631 0.0184
9.4600 6.2764 0.0173
9.4800 6.2897 0.0201
9.5000 6.3030 0.0240
9.5200 6.3163 0.0167
9.5400 6.3297 0.0157
9.5600 6.3430 0.0298
9.5800 6.3563 0.0141
9.6000 6.3697 0.0246
9.6200 6.3831 0.0260
9.6400 6.3964 0.0135
9.6600 6.4097 0.0231
9.6800 6.4231 0.0164
9.7000 6.4364 0.0147
9.7200 6.4498 0.0208
9.7400 6.4631 0.0221
9.7600 6.4764 0.0156
9.7800 6.4897 0.0191
9.8000 6.5031 0.0185
9.8200 6.5164 0.0201
9.8400 6.5297 0.0200
9.8600 6.5431 0.0202
9.8800 6.5564 0.0188
9.9000 6.5698 0.0167
9.9200 6.5831 0.0125
9.9400 6.5964 0.0224
9.9600 6.6097 0.0177
9.9800 6.6230 0.0156
10.0000 6.6364 0.0143
10.0200 6.6497 0.0174
10.0400 6.6630 0.0170
10.0600 6.6764 0.0218
10.0800 6.6897 0.0222
10.1000 6.7031 0.0091
10.1200 6.7164 0.0186
10.1400 6.7298 0.0188
10.1600 6.7431 0.0182
10.1800 6.7565 0.0166
10.2000 6.7698 0.0193
10.2200 6.7831 0.0159
10.2400 6.7964 0.0172
10.2600 6.8097 0.0177
10.2800 6.8231 0.0176
10.3000 6.8364 0.0184
10.3200 6.8497 0.0132
10.3400 6.8630 0.0207
10.3600 6.8764 0.0221
10.3800 6.8897 0.0109
10.4000 6.9030 0.0296
10.4200 6.9164 0.0125
10.4400 6.9298 0.0061
10.4600 6.9431 0.0243
10.4800 6.9564 0.0100
10.5000 6.9698 0.0078
10.5200 6.9831 0.0292
10.5400 6.9964 0.0109
10.5600 7.0097 0.0122
10.5800 7.0230 0.0296
10.6000 7.0364 0.0119
10.6200 7.0497 0.0170
10.6400 7.0630 0.0172
10.6600 7.0764 0.0120
10.6800 7.0897 0.0150
10.7000 7.1031 0.0199
10.7200 7.1164 0.0133
10.7400 7.1297 0.0243
10.7600 7.1430 0.0173
10.7800 7.1564 0.0146
10.8000 7.1697 0.0241
10.8200 7.1831 0.0144
10.8400 7.1964 0.0125
10.8600 7.2098 0.0255
10.8800 7.2231 0.0109
10.9000 7.2365 0.0140
10.9200 7.2498 0.0217
10.9400 7.2631 0.0208
10.9600 7.2764 0.0187
10.9800 7.2897 0.0244
11.0000 7.3030 0.0166
11.0200 7.3163 0.0185
11.0400 7.3296 0.0227
11.0600 7.3430 0.0202
11.0800 7.3563 0.0129
11.1000 7.3697 0.0209
11.1200 7.3831 0.0206
11.1400 7.3964 0.0094
11.1600 7.4098 0.0260
11.1800 7.4231 0.0228
11.2000 7.4364 0.0114
11.2200 7.4497 0.0223
11.2400 7.4631 0.0198
11.2600 7.4765 0.0156
11.2800 7.4898 0.0183
11.3000 7.5031 0.0143
11.3200 7.5164 0.0224
11.3400 7.5297 0.0227
11.3600 7.5431 0.0085
11.3800 7.5564 0.0225
11.4000 7.5697 0.0280
11.4200 7.5830 -0.0006
11.4400 7.5964 0.0219
11.4600 7.6097 0.0276
11.4800 7.6230 0.0014
11.5000 7.6364 0.0172
11.5200 7.6498 0.0212
11.5400 7.6631 0.0138
11.5600 7.6764 0.0164
11.5800 7.6897 0.0179
11.6000 7.7031 0.0173
11.6200 7.7165 0.0192
11.6400 7.7298 0.0071
11.6600 7.7430 0.0222
11.6800 7.7564 0.0164
11.7000 7.7697 0.0105
11.7200 7.7830 0.0270
11.7400 7.7963 0.0121
11.7600 7.8097 0.0088
11.7800 7.8230 0.0306
11.8000 7.8364 0.0050
11.8200 7.8497 0.0163
11.8400 7.8630 0.0266
11.8600 7.8764 0.0065
11.8800 7.8897 0.0151
11.9000 7.9031 0.0201
11.9200 7.9164 0.0119
11.9400 7.9297 0.0243
11.9600 7.9431 0.0157
11.9800 7.9564 0.0058
12.0000 7.9698 0.0296
12.0200 7.9831 0.0141
12.0400 7.9964 0.0128
12.0600 8.0098 0.0240
12.0800 8.0231 0.0131
12.1000 8.0364 0.0126
12.1200 8.0496 0.0287
12.1400 8.0630 0.0208
12.1600 8.0763 0.0132
12.1800 8.0897 0.0194
12.2000 8.1030 0.0177
12.2200 8.1164 0.0216
12.2400 8.1298 0.0248
12.2600 8.1431 0.0135
12.2800 8.1565 0.0205
12.3000 8.1698 0.0221
12.3200 8.1831 0.0188
12.3400 8.1965 0.0201
12.3600 8.2098 0.0166
12.3800 8.2230 0.0212
12.4000 8.2364 0.0178
12.4200 8.2497 0.0190
12.4400 8.2630 0.0226
12.4600 8.2763 0.0139
12.4800 8.2896 0.0173
12.5000 8.3030 0.0278
12.5200 8.3163 0.0123
12.5400 8.3297 0.0163
12.5600 8.3430 0.0249
12.5800 8.3564 0.0115
12.6000 8.3698 0.0184
12.6200 8.3832 0.0289
12.6400 8.3965 0.0061
12.6600 8.4098 0.0192
12.6800 8.4231 0.0292
12.7000 8.4365 0.0108
12.7200 8.4498 0.0206
12.7400 8.4630 0.0274
12.7600 8.4764 0.0096
12.7800 8.4897 0.0183
12.8000 8.5030 0.0194
12.8200 8.5163 0.0136
12.8400 8.5296 0.0241
12.8600 8.5430 0.0192
12.8800 8.5564 0.0193
12.9000 8.5697 0.0203
12.9200 8.5831 0.0132
12.9400 8.5964 0.0161
12.9600 8.6098 0.0277
12.9800 8.6231 0.0121
13.0000 8.6364 0.0128
13.0200 8.6498 0.0261
13.0400 8.6631 0.0234
13.0600 8.6765 0.0140
13.0800 8.6898 0.0235
13.1000 8.7031 0.0184
13.1200 8.7164 0.0161
13.1400 8.7298 0.0223
13.1600 8.7431 0.0194
13.1800 8.7564 0.0193
13.2000 8.7697 0.0214
13.2200 8.7830 0.0209
13.2400 8.7964 0.0229
13.2600 8.8097 0.0187
13.2800 8.8231 0.0228
13.3000 8.8364 0.0234
13.3200 8.8498 0.0186
13.3400 8.8631 0.0200
13.3600 8.8764 0.0201
13.3800 8.8898 0.0230
13.4000 8.9031 0.0223
13.4200 8.9164 0.0260
13.4400 8.9298 0.0239
13.4600 8.9430 0.0246
13.4800 8.9563 0.0221
13.5000 8.9697 0.0248
13.5200 8.9830 0.0224
13.5400 8.9964 0.0203
13.5600 9.0097 0.0214
13.5800 9.0230 0.0193
13.6000 9.0364 0.0231
13.6200 9.0497 0.0271
13.6400 9.0630 0.0223
13.6600 9.0763 0.0229
13.6800 9.0897 0.0230
13.7000 9.1031 0.0179
13.7200 9.1165 0.0214
13.7400 9.1298 0.0214
13.7600 9.1431 0.0170
13.7800 9.1565 0.0190
13.8000 9.1698 0.0227
13.8200 9.1831 0.0181
13.8400 9.1964 0.0209
13.8600 9.2097 0.0218
13.8800 9.2231 0.0143
13.9000 9.2364 0.0147
13.9200 9.2497 0.0250
13.9400 9.2630 0.0130
13.9600 9.2764 0.0148
13.9800 9.2897 0.0236
14.0000 9.3030 0.0169
14.0200 9.3164 0.0165
14.0400 9.3297 0.0219
14.0600 9.3431 0.0088
14.0800 9.3564 0.0147
14.1000 9.3697 0.0214
14.1200 9.3831 0.0116
14.1400 9.3964 0.0082
14.1600 9.4098 0.0206
14.1800 9.4231 0.0110
14.2000 9.4364 0.0180
14.2200 9.4497 0.0211
14.2400 9.4631 0.0074
14.2600 9.4764 0.0176
14.2800 9.4897 0.0153
14.3000 9.5030 0.0080
14.3200 9.5163 0.0176
14.3400 9.5297 0.0171
14.3600 9.5430 0.0044
14.3800 9.5564 0.0232
14.4000 9.5697 0.0101
14.4200 9.5831 0.0080
14.4400 9.5965 0.0216
14.4600 9.6098 0.0106
14.4800 9.6231 0.0066
14.5000 9.6365 0.0226
14.5200 9.6498 0.0044
14.5400 9.6630 0.0089
14.5600 9.6763 0.0224
14.5800 9.6897 0.0099
14.6000 9.7030 0.0143
14.6200 9.7163 0.0196
14.6400 9.7297 0.0076
14.6600 9.7430 0.0133
14.6800 9.7564 0.0180
14.7000 9.7697 0.0016
14.7200 9.7831 0.0174
14.7400 9.7964 0.0197
14.7600 9.8098 0.0033
14.7800 9.8231 0.0128
14.8000 9.8365 0.0226
14.8200 9.8498 0.0056
14.8400 9.8631 0.0136
14.8600 9.8764 0.0208
14.8800 9.8898 0.0018
14.9000 9.9030 0.0129
14.9200 9.9164 0.0298
14.9400 9.9297 0.0033
14.9600 9.9431 0.0095
14.9800 9.9564 0.0250
15.0000 9.9697 0.0117
15.0200 9.9830 0.0108
15.0400 9.9964 0.0277
15.0600 10.0097 0.0071
15.0800 10.0230 0.0090
15.1000 10.0364 0.0241
15.1200 10.0498 0.0067
15.1400 10.0631 0.0131
15.1600 10.0764 0.0221
15.1800 10.0898 0.0158
15.2000 10.1031 0.0126
15.2200 10.1164 0.0196
15.2400 10.1298 0.0134
15.2600 10.1431 0.0191
15.2800 10.1564 0.0169
15.3000 10.1697 0.0145
15.3200 10.1831 0.0172
15.3400 10.1964 0.0136
15.3600 10.2097 0.0140
15.3800 10.2230 0.0225
15.4000 10.2363 0.0236
15.4200 10.2497 0.0188
15.4400 10.2630 0.0122
15.4600 10.2764 0.0206
15.4800 10.2897 0.0154
15.5000 10.3031 0.0093
15.5200 10.3165 0.0232
15.5400 10.3298 0.0154
15.5600 10.3431 0.0110
15.5800 10.3565 0.0282
15.6000 10.3698 0.0204
15.6200 10.3831 0.0152
15.6400 10.3964 0.0280
15.6600 10.4097 0.0150
15.6800 10.4231 0.0148
15.7000 10.4364 0.0235
15.7200 10.4497 0.0181
15.7400 10.4630 0.0118
15.7600 10.4764 0.0269
15.7800 10.4897 0.0142
15.8000 10.5030 0.0141
15.8200 10.5163 0.0296
15.8400 10.5297 0.0151
15.8600 10.5431 0.0071
15.8800 10.5564 0.0266
15.9000 10.5697 0.0190
15.9200 10.5831 0.0074
15.9400 10.5964 0.0271
15.9600 10.6098 0.0145
15.9800 10.6231 0.0104
16.0000 10.6364 0.0321
16.0200 10.6497 0.0156
16.0400 10.6631 0.0099
16.0600 10.6764 0.0295
16.0800 10.6897 0.0157
16.1000 10.7030 0.0123
16.1200 10.7164 0.0211
16.1400 10.7297 0.0181
16.1600 10.7430 0.0145
16.1800 10.7564 0.0232
16.2000 10.7697 0.0193
16.2200 10.7831 0.0174
16.2400 10.7965 0.0238
16.2600 10.8098 0.0211
16.2800 10.8231 0.0183
16.3000 10.8364 0.0179
16.3200 10.8498 0.0178
16.3400 10.8631 0.0202
16.3600 10.8764 0.0228
16.3800 10.8897 0.0250
16.4000 10.9031 0.0183
16.4200 10.9164 0.0224
16.4400 10.9297 0.0252
16.4600 10.9430 0.0154
16.4800 10.9563 0.0264
16.5000 10.9697 0.0204
16.5200 10.9830 0.0108
16.5400 10.9964 0.0253
16.5600 11.0097 0.0303
16.5800 11.0231 0.0127
16.6000 11.0364 0.0305
16.6200 11.0498 0.0223
16.6400 11.0631 0.0147
16.6600 11.0765 0.0267
16.6800 11.0898 0.0155
16.7000 11.1031 0.0179
16.7200 11.1163 0.0271
16.7400 11.1297 0.0172
16.7600 11.1430 0.0263
16.7800 11.1564 0.0223
16.8000 11.1697 0.0217
16.8200 11.1830 0.0239
16.8400 11.1964 0.0213
16.8600 11.2097 0.0183
16.8800 11.2231 0.0224
16.9000 11.2364 0.0267
16.9200 11.2497 0.0170
16.9400 11.2631 0.0237
16.9600 11.2764 0.0251
16.9800 11.2897 0.0230
17.0000 11.3030 0.0197
17.0200 11.3164 0.0236
17.0400 11.3298 0.0198
17.0600 11.3431 0.0200
17.0800 11.3564 0.0228
17.1000 11.3697 0.0201
17.1200 11.3831 0.0168
17.1400 11.3964 0.0290
17.1600 11.4097 0.0226
17.1800 11.4230 0.0184
17.2000 11.4363 0.0274
17.2200 11.4497 0.0198
17.2400 11.4630 0.0151
17.2600 11.4763 0.0294
17.2800 11.4897 0.0224
17.3000 11.5031 0.0156
17.3200 11.5164 0.0264
17.3400 11.5297 0.0208
17.3600 11.5431 0.0189
17.3800 11.5564 0.0290
17.4000 11.5698 0.0227
17.4200 11.5831 0.0127
17.4400 11.5964 0.0269
17.4600 11.6097 0.0283
17.4800 11.6231 0.0206
17.5000 11.6364 0.0184
17.5200 11.6497 0.0261
17.5400 11.6630 0.0180
17.5600 11.6763 0.0270
17.5800 11.6897 0.0235
17.6000 11.7030 0.0174
17.6200 11.7163 0.0225
