Raw Data
Time Displacement Force
(s) (mm) (N)
0.0000 0.0000 -0.0074
0.0200 0.0001 0.0147
0.0400 0.0022 0.0727
0.0600 0.0101 0.0698
0.0800 0.0220 -0.0125
0.1000 0.0346 -0.0051
0.1200 0.0473 0.0300
0.1400 0.0607 -0.0040
0.1600 0.0747 0.0065
0.1800 0.0889 0.0119
0.2000 0.1028 -0.0143
0.2200 0.1164 0.0032
0.2400 0.1297 0.0211
0.2600 0.1430 -0.0066
0.2800 0.1563 0.0114
0.3000 0.1697 0.0194
0.3200 0.1831 -0.0114
0.3400 0.1964 0.0168
0.3600 0.2098 0.0144
0.3800 0.2231 -0.0055
0.4000 0.2365 0.0193
0.4200 0.2498 0.0102
0.4400 0.2631 -0.0004
0.4600 0.2764 0.0139
0.4800 0.2898 0.0111
0.5000 0.3031 -0.0015
0.5200 0.3164 0.0146
0.5400 0.3297 0.0008
0.5600 0.3431 0.0020
0.5800 0.3564 0.0166
0.6000 0.3698 -0.0025
0.6200 0.3831 0.0035
0.6400 0.3965 0.0101
0.6600 0.4098 0.0017
0.6800 0.4232 0.0076
0.7000 0.4365 0.0034
0.7200 0.4498 0.0060
0.7400 0.4631 0.0061
0.7600 0.4765 0.0004
0.7800 0.4898 0.0078
0.8000 0.5031 0.0058
0.8200 0.5164 0.0070
0.8400 0.5298 0.0009
0.8600 0.5431 0.0034
0.8800 0.5564 0.0021
0.9000 0.5697 0.0085
0.9200 0.5830 0.0054
0.9400 0.5964 0.0067
0.9600 0.6097 0.0078
0.9800 0.6231 0.0040
1.0000 0.6364 0.0065
1.0200 0.6498 0.0073
1.0400 0.6632 0.0031
1.0600 0.6765 0.0098
1.0800 0.6898 0.0072
1.1000 0.7031 0.0044
1.1200 0.7165 0.0104
1.1400 0.7298 0.0058
1.1600 0.7431 0.0057
1.1800 0.7564 0.0041
1.2000 0.7698 0.0073
1.2200 0.7831 0.0049
1.2400 0.7964 0.0085
1.2600 0.8098 0.0152
1.2800 0.8231 0.0042
1.3000 0.8364 0.0007
1.3200 0.8498 0.0119
1.3400 0.8631 0.0069
1.3600 0.8764 0.0076
1.3800 0.8898 0.0115
1.4000 0.9031 0.0025
1.4200 0.9165 0.0017
1.4400 0.9298 0.0157
1.4600 0.9431 0.0002
1.4800 0.9565 0.0064
1.5000 0.9698 0.0136
1.5200 0.9832 0.0002
1.5400 0.9965 0.0101
1.5600 1.0098 0.0099
1.5800 1.0231 0.0053
1.6000 1.0364 0.0108
1.6200 1.0497 0.0120
1.6400 1.0630 -0.0008
1.6600 1.0764 0.0141
1.6800 1.0898 0.0134
1.7000 1.1031 -0.0002
1.7200 1.1164 0.0152
1.7400 1.1298 0.0157
1.7600 1.1432 0.0008
1.7800 1.1565 0.0134
1.8000 1.1698 0.0144
1.8200 1.1832 0.0092
1.8400 1.1965 0.0185
1.8600 1.2099 0.0149
1.8800 1.2231 -0.0014
1.9000 1.2364 0.0225
1.9200 1.2498 0.0207
1.9400 1.2631 0.0054
1.9600 1.2765 0.0174
1.9800 1.2897 0.0078
2.0000 1.3031 0.0030
2.0200 1.3164 0.0196
2.0400 1.3298 0.0190
2.0600 1.3431 0.0073
2.0800 1.3564 0.0088
2.1000 1.3698 0.0098
2.1200 1.3832 0.0153
2.1400 1.3965 0.0124
2.1600 1.4098 0.0134
2.1800 1.4232 0.0046
2.2000 1.4365 0.0134
2.2200 1.4498 0.0123
2.2400 1.4631 0.0115
2.2600 1.4764 0.0136
2.2800 1.4897 0.0125
2.3000 1.5031 0.0092
2.3200 1.5164 0.0130
2.3400 1.5297 0.0151
2.3600 1.5431 0.0116
2.3800 1.5565 0.0091
2.4000 1.5698 0.0154
2.4200 1.5832 0.0114
2.4400 1.5965 0.0141
2.4600 1.6098 0.0151
2.4800 1.6232 0.0102
2.5000 1.6365 0.0132
2.5200 1.6498 0.0183
2.5400 1.6631 0.0092
2.5600 1.6765 0.0090
2.5800 1.6898 0.0209
2.6000 1.7032 0.0015
2.6200 1.7165 0.0126
2.6400 1.7298 0.0205
2.6600 1.7432 0.0064
2.6800 1.7565 0.0083
2.7000 1.7698 0.0186
2.7200 1.7831 0.0035
2.7400 1.7964 0.0146
2.7600 1.8098 0.0148
2.7800 1.8231 0.0018
2.8000 1.8364 0.0163
2.8200 1.8498 0.0121
2.8400 1.8631 0.0054
2.8600 1.8765 0.0187
2.8800 1.8898 0.0110
2.9000 1.9031 0.0047
2.9200 1.9165 0.0186
2.9400 1.9298 0.0106
2.9600 1.9431 0.0091
2.9800 1.9565 0.0201
3.0000 1.9698 0.0049
3.0200 1.9832 0.0078
3.0400 1.9965 0.0243
3.0600 2.0098 0.0061
3.0800 2.0231 0.0153
3.1000 2.0364 0.0208
3.1200 2.0498 0.0087
3.1400 2.0631 0.0139
3.1600 2.0764 0.0182
3.1800 2.0898 0.0099
3.2000 2.1032 0.0139
3.2200 2.1165 0.0129
3.2400 2.1299 0.0110
3.2600 2.1432 0.0199
3.2800 2.1565 0.0087
3.3000 2.1698 0.0104
3.3200 2.1831 0.0202
3.3400 2.1964 0.0124
3.3600 2.2098 0.0165
3.3800 2.2231 0.0149
3.4000 2.2365 0.0092
3.4200 2.2498 0.0142
3.4400 2.2631 0.0122
3.4600 2.2764 0.0129
3.4800 2.2898 0.0104
3.5000 2.3031 0.0148
3.5200 2.3164 0.0091
3.5400 2.3298 0.0173
3.5600 2.3431 0.0122
3.5800 2.3565 0.0079
3.6000 2.3698 0.0114
3.6200 2.3832 0.0149
3.6400 2.3965 0.0149
3.6600 2.4099 0.0105
3.6800 2.4232 0.0151
3.7000 2.4365 0.0138
3.7200 2.4498 0.0113
3.7400 2.4631 0.0159
3.7600 2.4765 0.0141
3.7800 2.4897 0.0087
3.8000 2.5030 0.0154
3.8200 2.5164 0.0164
3.8400 2.5297 0.0132
3.8600 2.5431 0.0163
3.8800 2.5564 0.0150
3.9000 2.5698 0.0081
3.9200 2.5832 0.0186
3.9400 2.5965 0.0133
3.9600 2.6098 0.0129
3.9800 2.6231 0.0187
4.0000 2.6365 0.0083
4.0200 2.6498 0.0125
4.0400 2.6632 0.0256
4.0600 2.6765 0.0088
4.0800 2.6898 0.0135
4.1000 2.7031 0.0201
4.1200 2.7165 0.0071
4.1400 2.7298 0.0188
4.1600 2.7431 0.0203
4.1800 2.7564 0.0026
4.2000 2.7697 0.0173
4.2200 2.7831 0.0210
4.2400 2.7964 0.0034
4.2600 2.8098 0.0211
4.2800 2.8232 0.0156
4.3000 2.8365 0.0072
4.3200 2.8498 0.0175
4.3400 2.8632 0.0181
4.3600 2.8765 0.0109
4.3800 2.8899 0.0123
4.4000 2.9032 0.0123
4.4200 2.9165 0.0172
4.4400 2.9298 0.0153
4.4600 2.9431 0.0133
4.4800 2.9564 0.0113
4.5000 2.9698 0.0143
4.5200 2.9831 0.0157
4.5400 2.9964 0.0172
4.5600 3.0098 0.0106
4.5800 3.0231 0.0167
4.6000 3.0364 0.0154
4.6200 3.0498 0.0080
4.6400 3.0631 0.0237
4.6600 3.0765 0.0125
4.6800 3.0898 0.0053
4.7000 3.1031 0.0262
4.7200 3.1165 0.0163
4.7400 3.1298 0.0075
4.7600 3.1432 0.0204
4.7800 3.1565 0.0106
4.8000 3.1698 0.0096
4.8200 3.1832 0.0231
4.8400 3.1965 0.0139
4.8600 3.2098 0.0131
4.8800 3.2231 0.0225
4.9000 3.2364 0.0074
4.9200 3.2497 0.0159
4.9400 3.2631 0.0272
4.9600 3.2764 0.0126
4.9800 3.2898 0.0083
5.0000 3.3032 0.0217
5.0200 3.3166 0.0092
5.0400 3.3299 0.0198
5.0600 3.3432 0.0232
5.0800 3.3565 0.0078
5.1000 3.3699 0.0162
5.1200 3.3832 0.0177
5.1400 3.3965 0.0156
5.1600 3.4098 0.0241
5.1800 3.4231 0.0272
5.2000 3.4365 0.0112
5.2200 3.4498 0.0118
5.2400 3.4631 0.0171
5.2600 3.4764 0.0222
5.2800 3.4897 0.0114
5.3000 3.5031 0.0191
5.3200 3.5164 0.0143
5.3400 3.5298 0.0153
5.3600 3.5431 0.0153
5.3800 3.5565 0.0157
5.4000 3.5699 0.0168
5.4200 3.5832 0.0184
5.4400 3.5965 0.0162
5.4600 3.6099 0.0140
5.4800 3.6232 0.0156
5.5000 3.6365 0.0212
5.5200 3.6498 0.0113
5.5400 3.6631 0.0206
5.5600 3.6764 0.0200
5.5800 3.6898 0.0093
5.6000 3.7031 0.0177
5.6200 3.7164 0.0160
5.6400 3.7298 0.0149
5.6600 3.7431 0.0173
5.6800 3.7564 0.0163
5.7000 3.7698 0.0050
5.7200 3.7831 0.0232
5.7400 3.7965 0.0153
5.7600 3.8098 0.0086
5.7800 3.8232 0.0246
5.8000 3.8365 0.0117
5.8200 3.8499 0.0088
5.8400 3.8632 0.0266
5.8600 3.8765 0.0129
5.8800 3.8898 0.0119
5.9000 3.9031 0.0243
5.9200 3.9165 0.0082
5.9400 3.9298 0.0107
5.9600 3.9431 0.0255
5.9800 3.9564 0.0072
6.0000 3.9698 0.0160
6.0200 3.9831 0.0242
6.0400 3.9964 0.0061
6.0600 4.0098 0.0212
6.0800 4.0231 0.0198
6.1000 4.0365 0.0065
6.1200 4.0499 0.0163
6.1400 4.0632 0.0219
6.1600 4.0765 0.0103
6.1800 4.0899 0.0167
6.2000 4.1032 0.0191
6.2200 4.1165 0.0138
6.2400 4.1298 0.0192
6.2600 4.1431 0.0186
6.2800 4.1565 0.0097
6.3000 4.1698 0.0183
6.3200 4.1831 0.0138
6.3400 4.1964 0.0151
6.3600 4.2098 0.0188
6.3800 4.2231 0.0114
6.4000 4.2364 0.0124
6.4200 4.2498 0.0209
6.4400 4.2631 0.0126
6.4600 4.2765 0.0148
6.4800 4.2898 0.0201
6.5000 4.3031 0.0093
6.5200 4.3165 0.0188
6.5400 4.3299 0.0155
6.5600 4.3432 0.0093
6.5800 4.3565 0.0187
6.6000 4.3698 0.0208
6.6200 4.3831 0.0073
6.6400 4.3965 0.0204
6.6600 4.4098 0.0161
6.6800 4.4231 0.0087
6.7000 4.4364 0.0206
6.7200 4.4497 0.0182
6.7400 4.4631 0.0027
6.7600 4.4764 0.0249
6.7800 4.4898 0.0176
6.8000 4.5031 0.0088
6.8200 4.5165 0.0230
6.8400 4.5298 0.0104
6.8600 4.5431 0.0153
6.8800 4.5565 0.0220
6.9000 4.5698 0.0135
6.9200 4.5832 0.0168
6.9400 4.5965 0.0191
6.9600 4.6098 0.0130
6.9800 4.6231 0.0184
7.0000 4.6365 0.0223
7.0200 4.6498 0.0150
7.0400 4.6631 0.0183
7.0600 4.6764 0.0212
7.0800 4.6897 0.0127
7.1000 4.7031 0.0246
7.1200 4.7164 0.0191
7.1400 4.7297 0.0139
7.1600 4.7431 0.0178
7.1800 4.7565 0.0184
7.2000 4.7699 0.0119
7.2200 4.7832 0.0190
7.2400 4.7965 0.0221
7.2600 4.8099 0.0137
7.2800 4.8232 0.0176
7.3000 4.8365 0.0147
7.3200 4.8498 0.0220
7.3400 4.8631 0.0180
7.3600 4.8764 0.0128
7.3800 4.8898 0.0224
7.4000 4.9031 0.0133
7.4200 4.9164 0.0112
7.4400 4.9298 0.0251
7.4600 4.9431 0.0102
7.4800 4.9565 0.0166
7.5000 4.9698 0.0198
7.5200 4.9832 0.0129
7.5400 4.9965 0.0137
7.5600 5.0099 0.0220
7.5800 5.0232 0.0098
7.6000 5.0365 0.0182
7.6200 5.0498 0.0194
7.6400 5.0632 0.0104
7.6600 5.0765 0.0192
7.6800 5.0898 0.0216
7.7000 5.1031 0.0100
7.7200 5.1164 0.0230
7.7400 5.1298 0.0184
7.7600 5.1431 0.0106
7.7800 5.1564 0.0240
7.8000 5.1697 0.0177
7.8200 5.1831 0.0118
7.8400 5.1964 0.0164
7.8600 5.2098 0.0229
7.8800 5.2231 0.0165
7.9000 5.2365 0.0240
7.9200 5.2498 0.0154
7.9400 5.2631 0.0117
7.9600 5.2765 0.0245
7.9800 5.2898 0.0140
8.0000 5.3032 0.0166
8.0200 5.3165 0.0239
8.0400 5.3298 0.0152
8.0600 5.3431 0.0184
8.0800 5.3565 0.0162
8.1000 5.3698 0.0171
8.1200 5.3831 0.0191
8.1400 5.3964 0.0223
8.1600 5.4097 0.0118
8.1800 5.4231 0.0216
8.2000 5.4364 0.0283
8.2200 5.4498 0.0154
8.2400 5.4631 0.0175
8.2600 5.4765 0.0208
8.2800 5.4899 0.0288
8.3000 5.5032 0.0124
8.3200 5.5165 0.0214
8.3400 5.5298 0.0353
8.3600 5.5432 0.0157
8.3800 5.5565 0.0166
8.4000 5.5698 0.0336
8.4200 5.5831 0.0221
8.4400 5.5965 0.0247
8.4600 5.6098 0.0261
8.4800 5.6231 0.0148
8.5000 5.6364 0.0282
8.5200 5.6498 0.0340
8.5400 5.6631 0.0065
8.5600 5.6764 0.0254
8.5800 5.6898 0.0342
8.6000 5.7031 0.0157
8.6200 5.7165 0.0217
8.6400 5.7298 0.0239
8.6600 5.7431 0.0249
8.6800 5.7565 0.0251
8.7000 5.7698 0.0132
8.7200 5.7832 0.0280
8.7400 5.7965 0.0351
8.7600 5.8098 0.0096
8.7800 5.8231 0.0157
8.8000 5.8365 0.0260
8.8200 5.8498 0.0241
8.8400 5.8631 0.0221
8.8600 5.8764 0.0166
8.8800 5.8897 0.0213
8.9000 5.9031 0.0314
8.9200 5.9164 0.0175
8.9400 5.9298 0.0216
8.9600 5.9432 0.0289
8.9800 5.9565 0.0181
9.0000 5.9699 0.0185
9.0200 5.9832 0.0207
9.0400 5.9965 0.0218
9.0600 6.0098 0.0280
9.0800 6.0232 0.0212
9.1000 6.0365 0.0143
9.1200 6.0498 0.0303
9.1400 6.0631 0.0223
9.1600 6.0764 0.0138
9.1800 6.0898 0.0278
9.2000 6.1031 0.0201
9.2200 6.1164 0.0169
9.2400 6.1297 0.0278
9.2600 6.1431 0.0134
9.2800 6.1564 0.0214
9.3000 6.1697 0.0292
9.3200 6.1831 0.0120
9.3400 6.1965 0.0183
9.3600 6.2099 0.0281
9.3800 6.2232 0.0108
9.4000 6.2365 0.0224
9.4200 6.2498 0.0262
9.4400 6.2632 0.0078
9.4600 6.2765 0.0200
9.4800 6.2898 0.0253
9.5000 6.3031 0.0100
9.5200 6.3164 0.0226
9.5400 6.3298 0.0238
9.5600 6.3431 0.0120
9.5800 6.3564 0.0250
9.6000 6.3697 0.0225
9.6200 6.3831 0.0136
9.6400 6.3965 0.0207
9.6600 6.4098 0.0192
9.6800 6.4232 0.0105
9.7000 6.4365 0.0229
9.7200 6.4499 0.0181
9.7400 6.4632 0.0133
9.7600 6.4765 0.0189
9.7800 6.4898 0.0200
9.8000 6.5031 0.0117
9.8200 6.5165 0.0224
9.8400 6.5298 0.0170
9.8600 6.5431 0.0113
9.8800 6.5565 0.0218
9.9000 6.5698 0.0199
9.9200 6.5831 0.0118
9.9400 6.5964 0.0215
9.9600 6.6098 0.0198
9.9800 6.6231 0.0089
10.0000 6.6364 0.0219
10.0200 6.6497 0.0203
10.0400 6.6631 0.0143
10.0600 6.6764 0.0223
10.0800 6.6898 0.0170
10.1000 6.7032 0.0068
10.1200 6.7165 0.0266
10.1400 6.7298 0.0146
10.1600 6.7432 0.0086
10.1800 6.7565 0.0188
10.2000 6.7698 0.0191
10.2200 6.7831 0.0084
10.2400 6.7965 0.0220
10.2600 6.8098 0.0168
10.2800 6.8231 0.0103
10.3000 6.8364 0.0195
10.3200 6.8498 0.0163
10.3400 6.8631 0.0102
10.3600 6.8764 0.0205
10.3800 6.8898 0.0149
10.4000 6.9031 0.0168
10.4200 6.9165 0.0172
10.4400 6.9298 0.0125
10.4600 6.9432 0.0159
10.4800 6.9565 0.0237
10.5000 6.9698 0.0157
10.5200 6.9832 0.0094
10.5400 6.9965 0.0250
10.5600 7.0098 0.0133
10.5800 7.0231 0.0166
10.6000 7.0364 0.0227
10.6200 7.0498 0.0129
10.6400 7.0631 0.0208
10.6600 7.0764 0.0228
10.6800 7.0898 0.0095
10.7000 7.1031 0.0261
10.7200 7.1165 0.0212
10.7400 7.1298 0.0152
10.7600 7.1431 0.0249
10.7800 7.1564 0.0203
10.8000 7.1698 0.0136
10.8200 7.1832 0.0246
10.8400 7.1965 0.0171
10.8600 7.2098 0.0214
10.8800 7.2232 0.0274
10.9000 7.2365 0.0117
10.9200 7.2498 0.0258
10.9400 7.2631 0.0232
10.9600 7.2765 0.0128
10.9800 7.2898 0.0278
11.0000 7.3031 0.0235
11.0200 7.3164 0.0105
11.0400 7.3297 0.0276
11.0600 7.3431 0.0213
11.0800 7.3564 0.0124
11.1000 7.3698 0.0273
11.1200 7.3831 0.0206
11.1400 7.3965 0.0117
11.1600 7.4099 0.0279
11.1800 7.4232 0.0143
11.2000 7.4365 0.0173
11.2200 7.4498 0.0213
11.2400 7.4632 0.0164
11.2600 7.4765 0.0205
11.2800 7.4898 0.0175
11.3000 7.5031 0.0162
11.3200 7.5165 0.0220
11.3400 7.5298 0.0165
11.3600 7.5431 0.0118
11.3800 7.5565 0.0219
11.4000 7.5698 0.0142
11.4200 7.5831 0.0191
11.4400 7.5964 0.0211
11.4600 7.6098 0.0100
11.4800 7.6231 0.0183
11.5000 7.6365 0.0225
11.5200 7.6498 0.0037
11.5400 7.6632 0.0274
11.5600 7.6765 0.0207
11.5800 7.6898 0.0051
11.6000 7.7032 0.0176
11.6200 7.7165 0.0184
11.6400 7.7298 0.0117
11.6600 7.7431 0.0205
11.6800 7.7564 0.0107
11.7000 7.7698 0.0112
11.7200 7.7831 0.0245
11.7400 7.7964 0.0116
11.7600 7.8097 0.0104
11.7800 7.8231 0.0262
11.8000 7.8364 0.0048
11.8200 7.8498 0.0119
11.8400 7.8631 0.0260
11.8600 7.8764 0.0119
11.8800 7.8898 0.0137
11.9000 7.9031 0.0207
11.9200 7.9164 0.0151
11.9400 7.9298 0.0122
11.9600 7.9431 0.0260
11.9800 7.9565 0.0119
12.0000 7.9698 0.0135
12.0200 7.9832 0.0235
12.0400 7.9965 0.0127
12.0600 8.0098 0.0158
12.0800 8.0231 0.0211
12.1000 8.0364 0.0113
12.1200 8.0497 0.0163
12.1400 8.0630 0.0199
12.1600 8.0764 0.0137
12.1800 8.0897 0.0145
12.2000 8.1031 0.0218
12.2200 8.1164 0.0170
12.2400 8.1299 0.0141
12.2600 8.1432 0.0244
12.2800 8.1565 0.0112
12.3000 8.1699 0.0134
12.3200 8.1832 0.0243
12.3400 8.1965 0.0165
12.3600 8.2098 0.0087
12.3800 8.2231 0.0234
12.4000 8.2364 0.0192
12.4200 8.2498 0.0162
12.4400 8.2631 0.0253
12.4600 8.2764 0.0157
12.4800 8.2897 0.0120
12.5000 8.3031 0.0301
12.5200 8.3164 0.0154
12.5400 8.3298 0.0130
12.5600 8.3431 0.0264
12.5800 8.3565 0.0164
12.6000 8.3698 0.0132
12.6200 8.3832 0.0307
12.6400 8.3965 0.0125
12.6600 8.4099 0.0146
12.6800 8.4232 0.0287
12.7000 8.4365 0.0113
12.7200 8.4498 0.0169
12.7400 8.4631 0.0275
12.7600 8.4764 0.0149
12.7800 8.4898 0.0165
12.8000 8.5031 0.0294
12.8200 8.5164 0.0171
12.8400 8.5297 0.0157
12.8600 8.5431 0.0257
12.8800 8.5564 0.0223
12.9000 8.5698 0.0126
12.9200 8.5831 0.0237
12.9400 8.5965 0.0212
12.9600 8.6098 0.0170
12.9800 8.6232 0.0205
13.0000 8.6365 0.0197
13.0200 8.6498 0.0178
13.0400 8.6632 0.0241
13.0600 8.6765 0.0200
13.0800 8.6898 0.0116
13.1000 8.7032 0.0273
13.1200 8.7165 0.0226
13.1400 8.7298 0.0146
13.1600 8.7431 0.0234
13.1800 8.7564 0.0177
13.2000 8.7697 0.0168
13.2200 8.7831 0.0310
13.2400 8.7964 0.0198
13.2600 8.8098 0.0109
13.2800 8.8231 0.0289
13.3000 8.8365 0.0240
13.3200 8.8499 0.0103
13.3400 8.8632 0.0307
13.3600 8.8765 0.0218
13.3800 8.8898 0.0098
13.4000 8.9032 0.0316
13.4200 8.9165 0.0221
13.4400 8.9298 0.0088
13.4600 8.9431 0.0333
13.4800 8.9564 0.0196
13.5000 8.9698 0.0155
13.5200 8.9831 0.0332
13.5400 8.9964 0.0205
13.5600 9.0098 0.0171
13.5800 9.0231 0.0304
13.6000 9.0364 0.0182
13.6200 9.0497 0.0167
13.6400 9.0631 0.0317
13.6600 9.0764 0.0112
13.6800 9.0898 0.0193
13.7000 9.1032 0.0302
13.7200 9.1165 0.0161
13.7400 9.1298 0.0208
13.7600 9.1432 0.0304
13.7800 9.1565 0.0116
13.8000 9.1699 0.0158
13.8200 9.1832 0.0300
13.8400 9.1964 0.0170
13.8600 9.2098 0.0129
13.8800 9.2231 0.0237
13.9000 9.2364 0.0130
13.9200 9.2497 0.0184
13.9400 9.2631 0.0250
13.9600 9.2764 0.0115
13.9800 9.2898 0.0149
14.0000 9.3031 0.0236
14.0200 9.3164 0.0141
14.0400 9.3298 0.0136
14.0600 9.3432 0.0225
14.0800 9.3565 0.0081
14.1000 9.3698 0.0193
14.1200 9.3831 0.0191
14.1400 9.3965 0.0012
14.1600 9.4098 0.0160
14.1800 9.4231 0.0208
14.2000 9.4365 0.0059
14.2200 9.4498 0.0158
14.2400 9.4632 0.0181
14.2600 9.4765 0.0085
14.2800 9.4897 0.0169
14.3000 9.5030 0.0141
14.3200 9.5164 0.0103
14.3400 9.5297 0.0171
14.3600 9.5431 0.0056
14.3800 9.5564 0.0177
14.4000 9.5698 0.0183
14.4200 9.5832 0.0062
14.4400 9.5965 0.0158
14.4600 9.6099 0.0198
14.4800 9.6232 0.0107
14.5000 9.6365 0.0149
14.5200 9.6498 0.0143
14.5400 9.6631 0.0104
14.5600 9.6764 0.0207
14.5800 9.6897 0.0151
14.6000 9.7031 0.0085
14.6200 9.7164 0.0189
14.6400 9.7297 0.0156
14.6600 9.7431 0.0088
14.6800 9.7565 0.0168
14.7000 9.7698 0.0123
14.7200 9.7831 0.0144
14.7400 9.7965 0.0124
14.7600 9.8098 0.0095
14.7800 9.8232 0.0155
14.8000 9.8365 0.0178
14.8200 9.8498 0.0084
14.8400 9.8631 0.0176
14.8600 9.8765 0.0190
14.8800 9.8898 0.0087
14.9000 9.9031 0.0189
14.9200 9.9164 0.0174
14.9400 9.9298 0.0125
14.9600 9.9431 0.0170
14.9800 9.9564 0.0108
15.0000 9.9697 0.0122
15.0200 9.9831 0.0225
15.0400 9.9964 0.0078
15.0600 10.0098 0.0124
15.0800 10.0231 0.0190
15.1000 10.0365 0.0114
15.1200 10.0498 0.0175
15.1400 10.0632 0.0234
15.1600 10.0765 0.0099
15.1800 10.0898 0.0204
15.2000 10.1032 0.0180
15.2200 10.1165 0.0113
15.2400 10.1299 0.0215
15.2600 10.1431 0.0203
15.2800 10.1564 0.0107
15.3000 10.1698 0.0230
15.3200 10.1831 0.0157
15.3400 10.1964 0.0141
15.3600 10.2097 0.0262
15.3800 10.2230 0.0187
15.4000 10.2364 0.0146
15.4200 10.2498 0.0224
15.4400 10.2631 0.0197
15.4600 10.2764 0.0203
15.4800 10.2898 0.0286
15.5000 10.3032 0.0173
15.5200 10.3165 0.0252
15.5400 10.3299 0.0248
15.5600 10.3432 0.0185
15.5800 10.3565 0.0257
15.6000 10.3699 0.0271
15.6200 10.3831 0.0151
15.6400 10.3964 0.0286
15.6600 10.4098 0.0268
15.6800 10.4231 0.0183
15.7000 10.4364 0.0257
15.7200 10.4498 0.0220
15.7400 10.4631 0.0226
15.7600 10.4764 0.0264
15.7800 10.4898 0.0229
15.8000 10.5031 0.0235
15.8200 10.5164 0.0286
15.8400 10.5298 0.0209
15.8600 10.5431 0.0228
15.8800 10.5565 0.0251
15.9000 10.5698 0.0270
15.9200 10.5831 0.0229
15.9400 10.5965 0.0249
15.9600 10.6099 0.0233
15.9800 10.6232 0.0222
16.0000 10.6365 0.0225
16.0200 10.6498 0.0307
16.0400 10.6631 0.0181
16.0600 10.6764 0.0239
16.0800 10.6897 0.0304
16.1000 10.7031 0.0168
16.1200 10.7164 0.0230
16.1400 10.7298 0.0333
16.1600 10.7431 0.0134
16.1800 10.7564 0.0241
16.2000 10.7698 0.0330
16.2200 10.7832 0.0159
16.2400 10.7965 0.0291
16.2600 10.8098 0.0283
16.2800 10.8231 0.0155
16.3000 10.8365 0.0292
16.3200 10.8498 0.0294
16.3400 10.8632 0.0189
16.3600 10.8765 0.0344
16.3800 10.8898 0.0240
16.4000 10.9031 0.0180
16.4200 10.9165 0.0313
16.4400 10.9298 0.0270
16.4600 10.9431 0.0171
16.4800 10.9564 0.0344
16.5000 10.9698 0.0220
16.5200 10.9831 0.0197
16.5400 10.9964 0.0336
16.5600 11.0098 0.0254
16.5800 11.0232 0.0242
16.6000 11.0365 0.0279
16.6200 11.0498 0.0238
16.6400 11.0632 0.0293
16.6600 11.0765 0.0290
16.6800 11.0899 0.0261
16.7000 11.1031 0.0263
16.7200 11.1164 0.0278
16.7400 11.1297 0.0283
16.7600 11.1431 0.0243
16.7800 11.1564 0.0260
16.8000 11.1697 0.0303
16.8200 11.1831 0.0257
16.8400 11.1964 0.0267
16.8600 11.2098 0.0281
16.8800 11.2232 0.0267
16.9000 11.2365 0.0274
16.9200 11.2498 0.0251
16.9400 11.2632 0.0282
16.9600 11.2765 0.0253
16.9800 11.2898 0.0290
17.0000 11.3031 0.0284
17.0200 11.3165 0.0235
17.0400 11.3298 0.0294
17.0600 11.3432 0.0275
17.0800 11.3565 0.0237
17.1000 11.3698 0.0272
17.1200 11.3832 0.0294
17.1400 11.3965 0.0234
17.1600 11.4098 0.0321
17.1800 11.4231 0.0259
17.2000 11.4364 0.0219
17.2200 11.4498 0.0338
17.2400 11.4631 0.0259
17.2600 11.4764 0.0213
17.2800 11.4898 0.0414
17.3000 11.5031 0.0184
17.3200 11.5165 0.0203
17.3400 11.5298 0.0402
17.3600 11.5431 0.0187
17.3800 11.5565 0.0253
17.4000 11.5699 0.0415
17.4200 11.5832 0.0127
17.4400 11.5965 0.0296
17.4600 11.6098 0.0375
17.4800 11.6232 0.0135
17.5000 11.6365 0.0259
17.5200 11.6498 0.0388
17.5400 11.6631 0.0155
17.5600 11.6764 0.0260
17.5800 11.6897 0.0323
17.6000 11.7031 0.0152
17.6200 11.7164 0.0308
