Raw Data
Time Displacement Force
(s) (mm) (N)
0.0000 0.0000 -0.0213
0.0200 0.0001 -0.0217
0.0400 0.0018 -0.0080
0.0600 0.0089 -0.0141
0.0800 0.0204 -0.0211
0.1000 0.0327 -0.0227
0.1200 0.0453 -0.0211
0.1400 0.0587 -0.0203
0.1600 0.0728 -0.0223
0.1800 0.0871 -0.0224
0.2000 0.1011 -0.0228
0.2200 0.1147 -0.0214
0.2400 0.1281 -0.0218
0.2600 0.1414 -0.0189
0.2800 0.1547 -0.0199
0.3000 0.1680 -0.0179
0.3200 0.1814 -0.0177
0.3400 0.1948 -0.0153
0.3600 0.2081 -0.0157
0.3800 0.2214 -0.0129
0.4000 0.2347 -0.0117
0.4200 0.2481 -0.0109
0.4400 0.2614 -0.0104
0.4600 0.2747 -0.0064
0.4800 0.2881 -0.0080
0.5000 0.3014 -0.0038
0.5200 0.3148 -0.0042
0.5400 0.3282 -0.0006
0.5600 0.3415 0.0006
0.5800 0.3548 0.0031
0.6000 0.3682 0.0046
0.6200 0.3815 0.0060
0.6400 0.3948 0.0083
0.6600 0.4081 0.0080
0.6800 0.4214 0.0123
0.7000 0.4347 0.0129
0.7200 0.4481 0.0170
0.7400 0.4614 0.0166
0.7600 0.4747 0.0226
0.7800 0.4881 0.0202
0.8000 0.5014 0.0272
0.8200 0.5148 0.0249
0.8400 0.5281 0.0297
0.8600 0.5415 0.0305
0.8800 0.5549 0.0337
0.9000 0.5682 0.0354
0.9200 0.5815 0.0370
0.9400 0.5948 0.0407
0.9600 0.6082 0.0402
0.9800 0.6215 0.0453
1.0000 0.6348 0.0455
1.0200 0.6481 0.0487
1.0400 0.6614 0.0494
1.0600 0.6747 0.0535
1.0800 0.6881 0.0536
1.1000 0.7014 0.0584
1.1200 0.7147 0.0578
1.1400 0.7281 0.0615
1.1600 0.7414 0.0620
1.1800 0.7547 0.0660
1.2000 0.7681 0.0671
1.2200 0.7814 0.0688
1.2400 0.7948 0.0719
1.2600 0.8081 0.0729
1.2800 0.8214 0.0758
1.3000 0.8348 0.0779
1.3200 0.8481 0.0801
1.3400 0.8615 0.0817
1.3600 0.8748 0.0840
1.3800 0.8881 0.0856
1.4000 0.9015 0.0883
1.4200 0.9148 0.0899
1.4400 0.9282 0.0925
1.4600 0.9414 0.0938
1.4800 0.9547 0.0971
1.5000 0.9680 0.0978
1.5200 0.9814 0.1003
1.5400 0.9947 0.1019
1.5600 1.0080 0.1044
1.5800 1.0214 0.1057
1.6000 1.0348 0.1082
1.6200 1.0482 0.1094
1.6400 1.0615 0.1119
1.6600 1.0748 0.1148
1.6800 1.0882 0.1148
1.7000 1.1015 0.1189
1.7200 1.1148 0.1190
1.7400 1.1281 0.1230
1.7600 1.1414 0.1228
1.7800 1.1548 0.1272
1.8000 1.1681 0.1265
1.8200 1.1814 0.1302
1.8400 1.1947 0.1311
1.8600 1.2080 0.1333
1.8800 1.2214 0.1356
1.9000 1.2347 0.1365
1.9200 1.2481 0.1392
1.9400 1.2614 0.1394
1.9600 1.2748 0.1436
1.9800 1.2882 0.1434
2.0000 1.3015 0.1469
2.0200 1.3148 0.1472
2.0400 1.3282 0.1510
2.0600 1.3415 0.1502
2.0800 1.3548 0.1555
2.1000 1.3681 0.1540
2.1200 1.3814 0.1582
2.1400 1.3948 0.1578
2.1600 1.4081 0.1611
2.1800 1.4214 0.1627
2.2000 1.4347 0.1644
2.2200 1.4480 0.1661
2.2400 1.4614 0.1677
2.2600 1.4748 0.1701
2.2800 1.4881 0.1710
2.3000 1.5014 0.1739
2.3200 1.5148 0.1748
2.3400 1.5282 0.1774
2.3600 1.5415 0.1774
2.3800 1.5548 0.1815
2.4000 1.5682 0.1806
2.4200 1.5815 0.1843
2.4400 1.5948 0.1846
2.4600 1.6081 0.1882
2.4800 1.6214 0.1873
2.5000 1.6347 0.1918
2.5200 1.6481 0.1917
2.5400 1.6613 0.1941
2.5600 1.6747 0.1955
2.5800 1.6880 0.1970
2.6000 1.7014 0.1987
2.6200 1.7147 0.1998
2.6400 1.7281 0.2031
2.6600 1.7414 0.2025
2.6800 1.7548 0.2074
2.7000 1.7682 0.2050
2.7200 1.7815 0.2108
2.7400 1.7948 0.2085
2.7600 1.8082 0.2141
2.7800 1.8215 0.2118
2.8000 1.8348 0.2174
2.8200 1.8481 0.2160
2.8400 1.8614 0.2189
2.8600 1.8748 0.2203
2.8800 1.8881 0.2212
2.9000 1.9014 0.2245
2.9200 1.9147 0.2240
2.9400 1.9281 0.2285
2.9600 1.9415 0.2266
2.9800 1.9548 0.2322
3.0000 1.9681 0.2298
3.0200 1.9814 0.2350
3.0400 1.9948 0.2327
3.0600 2.0082 0.2387
3.0800 2.0214 0.2361
3.1000 2.0347 0.2420
3.1200 2.0481 0.2407
3.1400 2.0615 0.2436
3.1600 2.0748 0.2451
3.1800 2.0881 0.2463
3.2000 2.1014 0.2488
3.2200 2.1148 0.2491
3.2400 2.1281 0.2516
3.2600 2.1415 0.2518
3.2800 2.1548 0.2544
3.3000 2.1681 0.2558
3.3200 2.1814 0.2577
3.3400 2.1948 0.2581
3.3600 2.2081 0.2607
3.3800 2.2214 0.2603
3.4000 2.2348 0.2642
3.4200 2.2481 0.2636
3.4400 2.2615 0.2670
3.4600 2.2748 0.2671
3.4800 2.2881 0.2701
3.5000 2.3015 0.2695
3.5200 2.3148 0.2735
3.5400 2.3281 0.2733
3.5600 2.3414 0.2764
3.5800 2.3548 0.2759
3.6000 2.3681 0.2796
3.6200 2.3814 0.2792
3.6400 2.3947 0.2819
3.6600 2.4080 0.2831
3.6800 2.4214 0.2836
3.7000 2.4347 0.2872
3.7200 2.4480 0.2861
3.7400 2.4614 0.2897
3.7600 2.4748 0.2893
3.7800 2.4882 0.2926
3.8000 2.5015 0.2926
3.8200 2.5149 0.2952
3.8400 2.5282 0.2964
3.8600 2.5415 0.2968
3.8800 2.5548 0.2998
3.9000 2.5681 0.3003
3.9200 2.5814 0.3026
3.9400 2.5947 0.3023
3.9600 2.6081 0.3050
3.9800 2.6214 0.3043
4.0000 2.6347 0.3086
4.0200 2.6481 0.3077
4.0400 2.6614 0.3105
4.0600 2.6748 0.3108
4.0800 2.6881 0.3133
4.1000 2.7014 0.3140
4.1200 2.7148 0.3157
4.1400 2.7282 0.3170
4.1600 2.7415 0.3186
4.1800 2.7548 0.3196
4.2000 2.7681 0.3223
4.2200 2.7815 0.3212
4.2400 2.7948 0.3250
4.2600 2.8081 0.3247
4.2800 2.8214 0.3278
4.3000 2.8348 0.3280
4.3200 2.8481 0.3301
4.3400 2.8614 0.3309
4.3600 2.8747 0.3323
4.3800 2.8880 0.3349
4.4000 2.9014 0.3346
4.4200 2.9148 0.3372
4.4400 2.9281 0.3374
4.4600 2.9414 0.3404
4.4800 2.9548 0.3396
4.5000 2.9682 0.3433
4.5200 2.9815 0.3420
4.5400 2.9948 0.3458
4.5600 3.0081 0.3458
4.5800 3.0215 0.3474
4.6000 3.0348 0.3489
4.6200 3.0481 0.3504
4.6400 3.0614 0.3516
4.6600 3.0748 0.3520
4.6800 3.0881 0.3554
4.7000 3.1014 0.3538
4.7200 3.1147 0.3584
4.7400 3.1281 0.3573
4.7600 3.1414 0.3599
4.7800 3.1548 0.3597
4.8000 3.1681 0.3627
4.8200 3.1814 0.3626
4.8400 3.1948 0.3646
4.8600 3.2082 0.3662
4.8800 3.2215 0.3666
4.9000 3.2348 0.3688
4.9200 3.2481 0.3699
4.9400 3.2614 0.3716
4.9600 3.2748 0.3718
4.9800 3.2881 0.3753
5.0000 3.3014 0.3738
5.0200 3.3147 0.3775
5.0400 3.3281 0.3762
5.0600 3.3414 0.3793
5.0800 3.3547 0.3782
5.1000 3.3681 0.3818
5.1200 3.3814 0.3808
5.1400 3.3948 0.3839
5.1600 3.4081 0.3851
5.1800 3.4214 0.3863
5.2000 3.4348 0.3863
5.2200 3.4482 0.3896
5.2400 3.4615 0.3890
5.2600 3.4748 0.3920
5.2800 3.4881 0.3924
5.3000 3.5015 0.3935
5.3200 3.5148 0.3950
5.3400 3.5282 0.3959
5.3600 3.5415 0.3982
5.3800 3.5548 0.3974
5.4000 3.5681 0.4007
5.4200 3.5814 0.4002
5.4400 3.5947 0.4029
5.4600 3.6081 0.4036
5.4800 3.6214 0.4052
5.5000 3.6347 0.4050
5.5200 3.6480 0.4087
5.5400 3.6614 0.4076
5.5600 3.6748 0.4103
5.5800 3.6882 0.4113
5.6000 3.7015 0.4115
5.6200 3.7148 0.4144
5.6400 3.7281 0.4144
5.6600 3.7415 0.4173
5.6800 3.7549 0.4156
5.7000 3.7682 0.4200
5.7200 3.7814 0.4187
5.7400 3.7948 0.4213
5.7600 3.8081 0.4212
5.7800 3.8214 0.4232
5.8000 3.8347 0.4236
5.8200 3.8480 0.4264
5.8400 3.8614 0.4264
5.8600 3.8747 0.4276
5.8800 3.8881 0.4292
5.9000 3.9014 0.4297
5.9200 3.9148 0.4313
5.9400 3.9281 0.4315
5.9600 3.9415 0.4346
5.9800 3.9548 0.4336
6.0000 3.9681 0.4377
6.0200 3.9815 0.4362
6.0400 3.9948 0.4393
6.0600 4.0081 0.4390
6.0800 4.0214 0.4419
6.1000 4.0347 0.4410
6.1200 4.0481 0.4447
6.1400 4.0614 0.4430
6.1600 4.0747 0.4465
6.1800 4.0881 0.4459
6.2000 4.1014 0.4491
6.2200 4.1148 0.4481
6.2400 4.1281 0.4511
6.2600 4.1415 0.4510
6.2800 4.1548 0.4520
6.3000 4.1682 0.4539
6.3200 4.1815 0.4530
6.3400 4.1948 0.4555
6.3600 4.2081 0.4559
6.3800 4.2214 0.4586
6.4000 4.2348 0.4566
6.4200 4.2481 0.4624
6.4400 4.2614 0.4600
6.4600 4.2748 0.4639
6.4800 4.2881 0.4620
6.5000 4.3015 0.4663
6.5200 4.3148 0.4644
6.5400 4.3281 0.4687
6.5600 4.3414 0.4673
6.5800 4.3548 0.4695
6.6000 4.3681 0.4707
6.6200 4.3814 0.4711
6.6400 4.3947 0.4728
6.6600 4.4081 0.4729
6.6800 4.4215 0.4760
6.7000 4.4348 0.4739
6.7200 4.4481 0.4789
6.7400 4.4615 0.4763
6.7600 4.4749 0.4799
6.7800 4.4882 0.4793
6.8000 4.5015 0.4829
6.8200 4.5148 0.4810
6.8400 4.5281 0.4848
6.8600 4.5415 0.4837
6.8800 4.5548 0.4858
6.9000 4.5680 0.4872
6.9200 4.5814 0.4879
6.9400 4.5947 0.4888
6.9600 4.6081 0.4894
6.9800 4.6214 0.4920
7.0000 4.6348 0.4906
7.0200 4.6481 0.4945
7.0400 4.6615 0.4933
7.0600 4.6748 0.4963
7.0800 4.6882 0.4950
7.1000 4.7015 0.4987
7.1200 4.7149 0.4964
7.1400 4.7282 0.5013
7.1600 4.7415 0.4989
7.1800 4.7548 0.5026
7.2000 4.7681 0.5014
7.2200 4.7815 0.5051
7.2400 4.7948 0.5036
7.2600 4.8081 0.5067
7.2800 4.8214 0.5076
7.3000 4.8347 0.5072
7.3200 4.8481 0.5098
7.3400 4.8614 0.5100
7.3600 4.8747 0.5123
7.3800 4.8881 0.5113
7.4000 4.9015 0.5155
7.4200 4.9148 0.5129
7.4400 4.9281 0.5178
7.4600 4.9415 0.5153
7.4800 4.9549 0.5189
7.5000 4.9682 0.5177
7.5200 4.9815 0.5212
7.5400 4.9948 0.5200
7.5600 5.0081 0.5217
7.5800 5.0215 0.5232
7.6000 5.0347 0.5220
7.6200 5.0480 0.5254
7.6400 5.0614 0.5248
7.6600 5.0747 0.5270
7.6800 5.0881 0.5261
7.7000 5.1014 0.5304
7.7200 5.1148 0.5273
7.7400 5.1282 0.5323
7.7600 5.1415 0.5303
7.7800 5.1548 0.5336
7.8000 5.1681 0.5325
7.8200 5.1815 0.5362
7.8400 5.1948 0.5344
7.8600 5.2081 0.5379
7.8800 5.2214 0.5383
7.9000 5.2347 0.5388
7.9200 5.2480 0.5406
7.9400 5.2614 0.5407
7.9600 5.2747 0.5421
7.9800 5.2881 0.5431
8.0000 5.3014 0.5450
8.0200 5.3147 0.5445
8.0400 5.3281 0.5470
8.0600 5.3414 0.5468
8.0800 5.3548 0.5494
8.1000 5.3682 0.5482
8.1200 5.3815 0.5520
8.1400 5.3948 0.5500
8.1600 5.4081 0.5539
8.1800 5.4215 0.5532
8.2000 5.4348 0.5547
8.2200 5.4481 0.5555
8.2400 5.4614 0.5566
8.2600 5.4747 0.5572
8.2800 5.4881 0.5580
8.3000 5.5014 0.5602
8.3200 5.5147 0.5594
8.3400 5.5280 0.5622
8.3600 5.5414 0.5615
8.3800 5.5547 0.5643
8.4000 5.5681 0.5625
8.4200 5.5814 0.5673
8.4400 5.5948 0.5644
8.4600 5.6081 0.5690
8.4800 5.6215 0.5673
8.5000 5.6348 0.5691
8.5200 5.6481 0.5703
8.5400 5.6614 0.5715
8.5600 5.6748 0.5720
8.5800 5.6882 0.5723
8.6000 5.7015 0.5749
8.6200 5.7148 0.5739
8.6400 5.7282 0.5768
8.6600 5.7415 0.5764
8.6800 5.7548 0.5782
8.7000 5.7681 0.5781
8.7200 5.7814 0.5810
8.7400 5.7947 0.5794
8.7600 5.8080 0.5833
8.7800 5.8214 0.5813
8.8000 5.8347 0.5833
8.8200 5.8481 0.5829
8.8400 5.8615 0.5848
8.8600 5.8749 0.5851
8.8800 5.8882 0.5862
8.9000 5.9015 0.5879
8.9200 5.9149 0.5880
8.9400 5.9282 0.5896
8.9600 5.9415 0.5907
8.9800 5.9548 0.5923
9.0000 5.9681 0.5914
9.0200 5.9814 0.5950
9.0400 5.9947 0.5931
9.0600 6.0080 0.5964
9.0800 6.0214 0.5953
9.1000 6.0347 0.5982
9.1200 6.0481 0.5968
9.1400 6.0614 0.6000
9.1600 6.0748 0.5982
9.1800 6.0881 0.6004
9.2000 6.1015 0.6010
9.2200 6.1148 0.6017
9.2400 6.1281 0.6036
9.2600 6.1415 0.6035
9.2800 6.1548 0.6057
9.3000 6.1682 0.6037
9.3200 6.1815 0.6088
9.3400 6.1948 0.6065
9.3600 6.2081 0.6103
9.3800 6.2214 0.6086
9.4000 6.2347 0.6124
9.4200 6.2480 0.6096
9.4400 6.2614 0.6153
9.4600 6.2747 0.6119
9.4800 6.2881 0.6157
9.5000 6.3014 0.6152
9.5200 6.3147 0.6165
9.5400 6.3281 0.6175
9.5600 6.3415 0.6183
9.5800 6.3548 0.6191
9.6000 6.3682 0.6186
9.6200 6.3815 0.6220
9.6400 6.3948 0.6207
9.6600 6.4082 0.6227
9.6800 6.4215 0.6233
9.7000 6.4348 0.6246
9.7200 6.4481 0.6243
9.7400 6.4614 0.6269
9.7600 6.4747 0.6265
9.7800 6.4880 0.6275
9.8000 6.5013 0.6278
9.8200 6.5147 0.6288
9.8400 6.5281 0.6300
9.8600 6.5414 0.6305
9.8800 6.5548 0.6321
9.9000 6.5681 0.6312
9.9200 6.5815 0.6342
9.9400 6.5949 0.6324
9.9600 6.6082 0.6345
9.9800 6.6215 0.6350
10.0000 6.6348 0.6373
10.0200 6.6482 0.6357
10.0400 6.6615 0.6396
10.0600 6.6748 0.6378
10.0800 6.6881 0.6410
10.1000 6.7015 0.6401
10.1200 6.7148 0.6427
10.1400 6.7281 0.6415
10.1600 6.7414 0.6440
10.1800 6.7548 0.6442
10.2000 6.7681 0.6450
10.2200 6.7814 0.6465
10.2400 6.7947 0.6467
10.2600 6.8081 0.6476
10.2800 6.8215 0.6482
10.3000 6.8348 0.6497
10.3200 6.8481 0.6498
10.3400 6.8614 0.6519
10.3600 6.8748 0.6514
10.3800 6.8882 0.6534
10.4000 6.9015 0.6535
10.4200 6.9148 0.6557
10.4400 6.9281 0.6550
10.4600 6.9414 0.6567
10.4800 6.9548 0.6580
10.5000 6.9681 0.6573
10.5200 6.9814 0.6607
10.5400 6.9947 0.6590
10.5600 7.0081 0.6614
10.5800 7.0214 0.6605
10.6000 7.0347 0.6639
10.6200 7.0481 0.6616
10.6400 7.0615 0.6656
10.6600 7.0748 0.6635
10.6800 7.0881 0.6670
10.7000 7.1014 0.6664
10.7200 7.1148 0.6684
10.7400 7.1281 0.6671
10.7600 7.1415 0.6695
10.7800 7.1548 0.6704
10.8000 7.1681 0.6687
10.8200 7.1815 0.6730
10.8400 7.1948 0.6700
10.8600 7.2081 0.6741
10.8800 7.2214 0.6721
10.9000 7.2347 0.6761
10.9200 7.2480 0.6730
10.9400 7.2614 0.6780
10.9600 7.2747 0.6753
10.9800 7.2881 0.6778
11.0000 7.3015 0.6773
11.0200 7.3149 0.6796
11.0400 7.3282 0.6787
11.0600 7.3415 0.6815
11.0800 7.3549 0.6815
11.1000 7.3682 0.6812
11.1200 7.3815 0.6847
11.1400 7.3947 0.6834
11.1600 7.4081 0.6859
11.1800 7.4214 0.6852
11.2000 7.4347 0.6879
11.2200 7.4480 0.6858
11.2400 7.4614 0.6900
11.2600 7.4747 0.6882
11.2800 7.4881 0.6907
11.3000 7.5014 0.6896
11.3200 7.5148 0.6933
11.3400 7.5281 0.6907
11.3600 7.5415 0.6953
11.3800 7.5549 0.6926
11.4000 7.5682 0.6953
11.4200 7.5815 0.6947
11.4400 7.5948 0.6971
11.4600 7.6082 0.6964
11.4800 7.6215 0.6978
11.5000 7.6348 0.6997
11.5200 7.6481 0.6978
11.5400 7.6614 0.7016
11.5600 7.6748 0.6989
11.5800 7.6881 0.7027
11.6000 7.7014 0.7005
11.6200 7.7147 0.7046
11.6400 7.7281 0.6998
11.6600 7.7414 0.7061
11.6800 7.7548 0.7031
11.7000 7.7681 0.7066
11.7200 7.7815 0.7060
11.7400 7.7948 0.7081
11.7600 7.8081 0.7081
11.7800 7.8215 0.7090
11.8000 7.8348 0.7111
11.8200 7.8482 0.7096
11.8400 7.8615 0.7136
11.8600 7.8748 0.7113
11.8800 7.8881 0.7147
11.9000 7.9014 0.7134
11.9200 7.9148 0.7170
11.9400 7.9281 0.7144
11.9600 7.9414 0.7184
11.9800 7.9547 0.7171
12.0000 7.9681 0.7191
12.0200 7.9814 0.7181
12.0400 7.9948 0.7220
12.0600 8.0081 0.7190
12.0800 8.0215 0.7217
12.1000 8.0348 0.7218
12.1200 8.0481 0.7222
12.1400 8.0614 0.7240
12.1600 8.0748 0.7246
12.1800 8.0882 0.7251
12.2000 8.1015 0.7254
12.2200 8.1148 0.7276
12.2400 8.1281 0.7263
12.2600 8.1414 0.7291
12.2800 8.1548 0.7284
12.3000 8.1681 0.7308
12.3200 8.1814 0.7297
12.3400 8.1947 0.7335
12.3600 8.2081 0.7300
12.3800 8.2214 0.7343
12.4000 8.2348 0.7331
12.4200 8.2481 0.7348
12.4400 8.2615 0.7352
12.4600 8.2748 0.7361
12.4800 8.2881 0.7368
12.5000 8.3015 0.7367
12.5200 8.3148 0.7399
12.5400 8.3282 0.7369
12.5600 8.3415 0.7414
12.5800 8.3548 0.7391
12.6000 8.3681 0.7431
12.6200 8.3815 0.7406
12.6400 8.3948 0.7444
12.6600 8.4081 0.7428
12.6800 8.4214 0.7450
12.7000 8.4347 0.7452
12.7200 8.4480 0.7454
12.7400 8.4613 0.7477
12.7600 8.4747 0.7465
12.7800 8.4881 0.7492
12.8000 8.5015 0.7474
12.8200 8.5148 0.7515
12.8400 8.5281 0.7496
12.8600 8.5415 0.7525
12.8800 8.5548 0.7518
12.9000 8.5682 0.7528
12.9200 8.5815 0.7521
12.9400 8.5948 0.7558
12.9600 8.6081 0.7530
12.9800 8.6214 0.7567
13.0000 8.6348 0.7543
13.0200 8.6481 0.7579
13.0400 8.6614 0.7571
13.0600 8.6747 0.7600
13.0800 8.6881 0.7578
13.1000 8.7014 0.7598
13.1200 8.7147 0.7599
13.1400 8.7281 0.7604
13.1600 8.7415 0.7613
13.1800 8.7548 0.7631
13.2000 8.7682 0.7632
13.2200 8.7815 0.7629
13.2400 8.7948 0.7661
13.2600 8.8081 0.7643
13.2800 8.8215 0.7675
13.3000 8.8348 0.7658
13.3200 8.8481 0.7697
13.3400 8.8614 0.7667
13.3600 8.8748 0.7706
13.3800 8.8881 0.7690
13.4000 8.9014 0.7717
13.4200 8.9147 0.7718
13.4400 8.9281 0.7723
13.4600 8.9415 0.7732
13.4800 8.9548 0.7737
13.5000 8.9681 0.7750
13.5200 8.9815 0.7737
13.5400 8.9948 0.7784
13.5600 9.0081 0.7741
13.5800 9.0214 0.7797
13.6000 9.0348 0.7763
13.6200 9.0481 0.7816
13.6400 9.0615 0.7772
13.6600 9.0748 0.7837
13.6800 9.0881 0.7792
13.7000 9.1015 0.7837
13.7200 9.1148 0.7822
13.7400 9.1281 0.7843
13.7600 9.1414 0.7839
13.7800 9.1547 0.7859
13.8000 9.1681 0.7864
13.8200 9.1814 0.7854
13.8400 9.1947 0.7886
13.8600 9.2081 0.7863
13.8800 9.2214 0.7888
13.9000 9.2348 0.7872
13.9200 9.2481 0.7907
13.9400 9.2615 0.7883
13.9600 9.2748 0.7931
13.9800 9.2882 0.7894
14.0000 9.3015 0.7938
14.0200 9.3148 0.7921
14.0400 9.3281 0.7956
14.0600 9.3415 0.7932
14.0800 9.3548 0.7970
14.1000 9.3681 0.7955
14.1200 9.3814 0.7978
14.1400 9.3947 0.7974
14.1600 9.4080 0.7982
14.1800 9.4214 0.7988
14.2000 9.4347 0.7997
14.2200 9.4481 0.8014
14.2400 9.4615 0.7994
14.2600 9.4748 0.8046
14.2800 9.4882 0.7998
14.3000 9.5015 0.8055
14.3200 9.5148 0.8020
14.3400 9.5282 0.8069
14.3600 9.5415 0.8039
14.3800 9.5548 0.8083
14.4000 9.5681 0.8067
14.4200 9.5815 0.8077
14.4400 9.5948 0.8094
14.4600 9.6081 0.8085
14.4800 9.6214 0.8103
14.5000 9.6347 0.8103
14.5200 9.6481 0.8122
14.5400 9.6614 0.8101
14.5600 9.6747 0.8149
14.5800 9.6881 0.8117
14.6000 9.7014 0.8154
14.6200 9.7148 0.8126
14.6400 9.7281 0.8166
14.6600 9.7415 0.8137
14.6800 9.7548 0.8182
14.7000 9.7682 0.8155
14.7200 9.7815 0.8179
14.7400 9.7948 0.8184
14.7600 9.8081 0.8192
14.7800 9.8214 0.8195
14.8000 9.8348 0.8208
14.8200 9.8481 0.8214
14.8400 9.8614 0.8211
14.8600 9.8747 0.8235
14.8800 9.8881 0.8233
14.9000 9.9014 0.8240
14.9200 9.9147 0.8240
14.9400 9.9281 0.8264
14.9600 9.9414 0.8248
14.9800 9.9549 0.8273
15.0000 9.9682 0.8271
15.0200 9.9815 0.8286
15.0400 9.9948 0.8285
15.0600 10.0082 0.8304
15.0800 10.0215 0.8296
15.1000 10.0348 0.8318
15.1200 10.0481 0.8312
15.1400 10.0614 0.8320
15.1600 10.0747 0.8328
15.1800 10.0881 0.8337
15.2000 10.1014 0.8346
15.2200 10.1147 0.8343
15.2400 10.1281 0.8369
15.2600 10.1414 0.8344
15.2800 10.1548 0.8391
15.3000 10.1681 0.8366
15.3200 10.1815 0.8397
15.3400 10.1949 0.8377
15.3600 10.2082 0.8406
15.3800 10.2215 0.8395
15.4000 10.2348 0.8420
15.4200 10.2482 0.8409
15.4400 10.2615 0.8410
15.4600 10.2748 0.8420
15.4800 10.2881 0.8424
15.5000 10.3014 0.8432
15.5200 10.3147 0.8432
15.5400 10.3281 0.8450
15.5600 10.3414 0.8430
15.5800 10.3547 0.8475
15.6000 10.3680 0.8447
15.6200 10.3814 0.8480
15.6400 10.3948 0.8466
15.6600 10.4081 0.8495
15.6800 10.4214 0.8482
15.7000 10.4348 0.8510
15.7200 10.4482 0.8495
15.7400 10.4615 0.8520
15.7600 10.4748 0.8504
15.7800 10.4881 0.8529
15.8000 10.5015 0.8424
15.8200 10.5148 0.8268
15.8400 10.5281 0.8174
15.8600 10.5415 0.8179
15.8800 10.5548 0.8212
15.9000 10.5682 0.8239
15.9200 10.5814 0.8258
15.9400 10.5947 0.8277
15.9600 10.6080 0.8304
15.9800 10.6214 0.8296
16.0000 10.6347 0.8332
16.0200 10.6480 0.8334
16.0400 10.6614 0.8352
16.0600 10.6748 0.8359
16.0800 10.6882 0.8391
16.1000 10.7015 0.8375
16.1200 10.7148 0.8413
16.1400 10.7282 0.8414
16.1600 10.7415 0.8430
16.1800 10.7548 0.8444
16.2000 10.7681 0.8455
16.2200 10.7814 0.8465
16.2400 10.7948 0.8471
16.2600 10.8081 0.8499
16.2800 10.8214 0.8484
16.3000 10.8347 0.8520
16.3200 10.8480 0.8509
16.3400 10.8614 0.8537
16.3600 10.8747 0.8530
16.3800 10.8881 0.8560
16.4000 10.9014 0.8542
16.4200 10.9148 0.8575
16.4400 10.9282 0.8574
16.4600 10.9415 0.8580
16.4800 10.9548 0.8600
16.5000 10.9682 0.8599
16.5200 10.9815 0.8614
16.5400 10.9948 0.8615
16.5600 11.0081 0.8641
16.5800 11.0214 0.8615
16.6000 11.0348 0.8650
16.6200 11.0481 0.8639
16.6400 11.0614 0.8667
16.6600 11.0747 0.8652
16.6800 11.0880 0.8691
16.7000 11.1014 0.8662
16.7200 11.1148 0.8697
16.7400 11.1281 0.8693
16.7600 11.1414 0.8715
16.7800 11.1548 0.8700
16.8000 11.1682 0.8739
16.8200 11.1815 0.8717
16.8400 11.1948 0.8746
16.8600 11.2082 0.8740
16.8800 11.2215 0.8749
16.9000 11.2348 0.8760
16.9200 11.2481 0.8763
16.9400 11.2614 0.8773
16.9600 11.2748 0.8774
16.9800 11.2881 0.8802
17.0000 11.3014 0.8773
17.0200 11.3147 0.8823
17.0400 11.3280 0.8787
17.0600 11.3414 0.8841
17.0800 11.3548 0.8790
17.1000 11.3681 0.8854
17.1200 11.3814 0.8812
17.1400 11.3948 0.8861
17.1600 11.4082 0.8838
17.1800 11.4215 0.8860
17.2000 11.4348 0.8861
17.2200 11.4481 0.8871
17.2400 11.4615 0.8871
17.2600 11.4748 0.8871
17.2800 11.4881 0.8899
17.3000 11.5014 0.8877
17.3200 11.5148 0.8911
17.3400 11.5281 0.8896
17.3600 11.5414 0.8927
17.3800 11.5548 0.8899
17.4000 11.5681 0.8953
17.4200 11.5814 0.8910
17.4400 11.5948 0.8954
17.4600 11.6081 0.8940
17.4800 11.6214 0.8961
17.5000 11.6348 0.8949
17.5200 11.6482 0.8973
17.5400 11.6614 0.8969
17.5600 11.6747 0.8985
17.5800 11.6881 0.8982
17.6000 11.7015 0.8997
17.6200 11.7148 0.8992
