Raw Data
Time Displacement Force
(s) (mm) (N)
0.0000 0.0000 -0.7138
0.0200 -0.0001 -0.7186
0.0400 -0.0019 -0.7337
0.0600 -0.0093 -0.7324
0.0800 -0.0211 -0.7169
0.1000 -0.0337 -0.7219
0.1200 -0.0464 -0.7187
0.1400 -0.0598 -0.7212
0.1600 -0.0738 -0.7174
0.1800 -0.0879 -0.7198
0.2000 -0.1017 -0.7134
0.2200 -0.1153 -0.7154
0.2400 -0.1287 -0.7161
0.2600 -0.1420 -0.7136
0.2800 -0.1553 -0.7149
0.3000 -0.1686 -0.7126
0.3200 -0.1820 -0.7130
0.3400 -0.1954 -0.7106
0.3600 -0.2087 -0.7138
0.3800 -0.2220 -0.7105
0.4000 -0.2353 -0.7123
0.4200 -0.2487 -0.7092
0.4400 -0.2620 -0.7078
0.4600 -0.2753 -0.7053
0.4800 -0.2887 -0.7068
0.5000 -0.3020 -0.7023
0.5200 -0.3154 -0.7042
0.5400 -0.3287 -0.7021
0.5600 -0.3421 -0.6995
0.5800 -0.3554 -0.7006
0.6000 -0.3687 -0.6979
0.6200 -0.3821 -0.6952
0.6400 -0.3954 -0.6965
0.6600 -0.4087 -0.6968
0.6800 -0.4220 -0.6907
0.7000 -0.4354 -0.6919
0.7200 -0.4487 -0.6880
0.7400 -0.4620 -0.6857
0.7600 -0.4753 -0.6870
0.7800 -0.4887 -0.6854
0.8000 -0.5020 -0.6825
0.8200 -0.5154 -0.6819
0.8400 -0.5287 -0.6797
0.8600 -0.5420 -0.6769
0.8800 -0.5554 -0.6781
0.9000 -0.5687 -0.6746
0.9200 -0.5820 -0.6735
0.9400 -0.5954 -0.6732
0.9600 -0.6087 -0.6724
0.9800 -0.6221 -0.6695
1.0000 -0.6354 -0.6680
1.0200 -0.6487 -0.6644
1.0400 -0.6620 -0.6610
1.0600 -0.6754 -0.6633
1.0800 -0.6887 -0.6609
1.1000 -0.7019 -0.6577
1.1200 -0.7152 -0.6566
1.1400 -0.7286 -0.6561
1.1600 -0.7420 -0.6529
1.1800 -0.7553 -0.6537
1.2000 -0.7687 -0.6510
1.2200 -0.7820 -0.6495
1.2400 -0.7954 -0.6471
1.2600 -0.8088 -0.6474
1.2800 -0.8221 -0.6447
1.3000 -0.8354 -0.6473
1.3200 -0.8488 -0.6432
1.3400 -0.8621 -0.6402
1.3600 -0.8754 -0.6394
1.3800 -0.8887 -0.6387
1.4000 -0.9020 -0.6354
1.4200 -0.9154 -0.6358
1.4400 -0.9287 -0.6338
1.4600 -0.9419 -0.6330
1.4800 -0.9553 -0.6328
1.5000 -0.9686 -0.6322
1.5200 -0.9820 -0.6305
1.5400 -0.9953 -0.6306
1.5600 -1.0087 -0.6291
1.5800 -1.0220 -0.6275
1.6000 -1.0354 -0.6294
1.6200 -1.0488 -0.6254
1.6400 -1.0621 -0.6240
1.6600 -1.0754 -0.6219
1.6800 -1.0887 -0.6216
1.7000 -1.1021 -0.6197
1.7200 -1.1154 -0.6211
1.7400 -1.1287 -0.6205
1.7600 -1.1420 -0.6182
1.7800 -1.1554 -0.6178
1.8000 -1.1687 -0.6153
1.8200 -1.1820 -0.6119
1.8400 -1.1953 -0.6113
1.8600 -1.2087 -0.6122
1.8800 -1.2221 -0.6065
1.9000 -1.2354 -0.6069
1.9200 -1.2487 -0.6051
1.9400 -1.2621 -0.6054
1.9600 -1.2754 -0.6029
1.9800 -1.2887 -0.6019
2.0000 -1.3020 -0.5994
2.0200 -1.3153 -0.5988
2.0400 -1.3287 -0.5973
2.0600 -1.3421 -0.5943
2.0800 -1.3554 -0.5962
2.1000 -1.3687 -0.5945
2.1200 -1.3820 -0.5931
2.1400 -1.3954 -0.5892
2.1600 -1.4087 -0.5924
2.1800 -1.4220 -0.5868
2.2000 -1.4353 -0.5905
2.2200 -1.4487 -0.5864
2.2400 -1.4620 -0.5871
2.2600 -1.4753 -0.5852
2.2800 -1.4887 -0.5874
2.3000 -1.5020 -0.5838
2.3200 -1.5154 -0.5838
2.3400 -1.5288 -0.5818
2.3600 -1.5421 -0.5794
2.3800 -1.5554 -0.5803
2.4000 -1.5688 -0.5780
2.4200 -1.5821 -0.5769
2.4400 -1.5954 -0.5745
2.4600 -1.6087 -0.5746
2.4800 -1.6220 -0.5711
2.5000 -1.6354 -0.5715
2.5200 -1.6487 -0.5702
2.5400 -1.6620 -0.5695
2.5600 -1.6753 -0.5665
2.5800 -1.6886 -0.5669
2.6000 -1.7020 -0.5643
2.6200 -1.7154 -0.5645
2.6400 -1.7287 -0.5650
2.6600 -1.7420 -0.5600
2.6800 -1.7554 -0.5615
2.7000 -1.7688 -0.5580
2.7200 -1.7821 -0.5565
2.7400 -1.7954 -0.5582
2.7600 -1.8087 -0.5587
2.7800 -1.8221 -0.5559
2.8000 -1.8354 -0.5537
2.8200 -1.8487 -0.5537
2.8400 -1.8620 -0.5509
2.8600 -1.8754 -0.5532
2.8800 -1.8887 -0.5508
2.9000 -1.9020 -0.5484
2.9200 -1.9153 -0.5460
2.9400 -1.9287 -0.5479
2.9600 -1.9420 -0.5440
2.9800 -1.9554 -0.5437
3.0000 -1.9687 -0.5419
3.0200 -1.9820 -0.5445
3.0400 -1.9954 -0.5411
3.0600 -2.0087 -0.5421
3.0800 -2.0221 -0.5370
3.1000 -2.0354 -0.5369
3.1200 -2.0487 -0.5366
3.1400 -2.0621 -0.5352
3.1600 -2.0754 -0.5322
3.1800 -2.0887 -0.5353
3.2000 -2.1021 -0.5320
3.2200 -2.1154 -0.5325
3.2400 -2.1287 -0.5316
3.2600 -2.1420 -0.5279
3.2800 -2.1553 -0.5276
3.3000 -2.1687 -0.5273
3.3200 -2.1820 -0.5240
3.3400 -2.1954 -0.5258
3.3600 -2.2087 -0.5241
3.3800 -2.2220 -0.5225
3.4000 -2.2354 -0.5200
3.4200 -2.2488 -0.5195
3.4400 -2.2621 -0.5174
3.4600 -2.2754 -0.5199
3.4800 -2.2887 -0.5182
3.5000 -2.3021 -0.5152
3.5200 -2.3154 -0.5148
3.5400 -2.3287 -0.5143
3.5600 -2.3420 -0.5128
3.5800 -2.3554 -0.5089
3.6000 -2.3687 -0.5077
3.6200 -2.3820 -0.5074
3.6400 -2.3953 -0.5100
3.6600 -2.4087 -0.5073
3.6800 -2.4220 -0.5054
3.7000 -2.4354 -0.5026
3.7200 -2.4487 -0.5063
3.7400 -2.4620 -0.5019
3.7600 -2.4754 -0.5034
3.7800 -2.4888 -0.4995
3.8000 -2.5021 -0.4996
3.8200 -2.5154 -0.5002
3.8400 -2.5287 -0.5005
3.8600 -2.5421 -0.4975
3.8800 -2.5554 -0.4969
3.9000 -2.5687 -0.4946
3.9200 -2.5820 -0.4937
3.9400 -2.5954 -0.4920
3.9600 -2.6087 -0.4929
3.9800 -2.6220 -0.4910
4.0000 -2.6353 -0.4902
4.0200 -2.6487 -0.4892
4.0400 -2.6621 -0.4874
4.0600 -2.6754 -0.4832
4.0800 -2.6887 -0.4861
4.1000 -2.7020 -0.4826
4.1200 -2.7154 -0.4847
4.1400 -2.7287 -0.4815
4.1600 -2.7421 -0.4791
4.1800 -2.7554 -0.4762
4.2000 -2.7687 -0.4790
4.2200 -2.7820 -0.4761
4.2400 -2.7954 -0.4755
4.2600 -2.8087 -0.4746
4.2800 -2.8221 -0.4732
4.3000 -2.8354 -0.4727
4.3200 -2.8488 -0.4707
4.3400 -2.8620 -0.4688
4.3600 -2.8753 -0.4697
4.3800 -2.8886 -0.4686
4.4000 -2.9020 -0.4666
4.4200 -2.9153 -0.4648
4.4400 -2.9286 -0.4650
4.4600 -2.9420 -0.4651
4.4800 -2.9553 -0.4620
4.5000 -2.9687 -0.4611
4.5200 -2.9821 -0.4593
4.5400 -2.9954 -0.4566
4.5600 -3.0087 -0.4602
4.5800 -3.0221 -0.4595
4.6000 -3.0355 -0.4596
4.6200 -3.0487 -0.4587
4.6400 -3.0620 -0.4559
4.6600 -3.0754 -0.4527
4.6800 -3.0887 -0.4533
4.7000 -3.1020 -0.4516
4.7200 -3.1153 -0.4516
4.7400 -3.1287 -0.4525
4.7600 -3.1420 -0.4507
4.7800 -3.1554 -0.4492
4.8000 -3.1687 -0.4490
4.8200 -3.1820 -0.4484
4.8400 -3.1954 -0.4456
4.8600 -3.2088 -0.4450
4.8800 -3.2221 -0.4417
4.9000 -3.2354 -0.4430
4.9200 -3.2487 -0.4412
4.9400 -3.2621 -0.4422
4.9600 -3.2754 -0.4379
4.9800 -3.2887 -0.4397
5.0000 -3.3020 -0.4344
5.0200 -3.3154 -0.4351
5.0400 -3.3287 -0.4336
5.0600 -3.3420 -0.4353
5.0800 -3.3553 -0.4310
5.1000 -3.3686 -0.4339
5.1200 -3.3820 -0.4313
5.1400 -3.3954 -0.4319
5.1600 -3.4087 -0.4293
5.1800 -3.4220 -0.4303
5.2000 -3.4354 -0.4280
5.2200 -3.4488 -0.4282
5.2400 -3.4621 -0.4259
5.2600 -3.4754 -0.4272
5.2800 -3.4887 -0.4266
5.3000 -3.5021 -0.4263
5.3200 -3.5154 -0.4228
5.3400 -3.5287 -0.4215
5.3600 -3.5420 -0.4209
5.3800 -3.5554 -0.4201
5.4000 -3.5687 -0.4210
5.4200 -3.5820 -0.4178
5.4400 -3.5953 -0.4159
5.4600 -3.6086 -0.4166
5.4800 -3.6220 -0.4169
5.5000 -3.6353 -0.4154
5.5200 -3.6487 -0.4151
5.5400 -3.6620 -0.4139
5.5600 -3.6754 -0.4124
5.5800 -3.6888 -0.4111
5.6000 -3.7021 -0.4109
5.6200 -3.7154 -0.4082
5.6400 -3.7287 -0.4085
5.6600 -3.7421 -0.4067
5.6800 -3.7555 -0.4082
5.7000 -3.7688 -0.4074
5.7200 -3.7820 -0.4061
5.7400 -3.7954 -0.4036
5.7600 -3.8087 -0.4038
5.7800 -3.8220 -0.4018
5.8000 -3.8353 -0.4002
5.8200 -3.8487 -0.4012
5.8400 -3.8620 -0.3994
5.8600 -3.8754 -0.3978
5.8800 -3.8887 -0.3991
5.9000 -3.9020 -0.3988
5.9200 -3.9153 -0.3959
5.9400 -3.9287 -0.3949
5.9600 -3.9421 -0.3954
5.9800 -3.9554 -0.3938
6.0000 -3.9687 -0.3934
6.0200 -3.9821 -0.3932
6.0400 -3.9954 -0.3902
6.0600 -4.0088 -0.3897
6.0800 -4.0221 -0.3911
6.1000 -4.0354 -0.3874
6.1200 -4.0488 -0.3879
6.1400 -4.0621 -0.3873
6.1600 -4.0753 -0.3859
6.1800 -4.0887 -0.3846
6.2000 -4.1020 -0.3831
6.2200 -4.1154 -0.3826
6.2400 -4.1287 -0.3830
6.2600 -4.1420 -0.3807
6.2800 -4.1554 -0.3806
6.3000 -4.1687 -0.3806
6.3200 -4.1821 -0.3801
6.3400 -4.1954 -0.3799
6.3600 -4.2087 -0.3798
6.3800 -4.2221 -0.3775
6.4000 -4.2354 -0.3740
6.4200 -4.2488 -0.3765
6.4400 -4.2621 -0.3752
6.4600 -4.2754 -0.3754
6.4800 -4.2887 -0.3737
6.5000 -4.3021 -0.3709
6.5200 -4.3153 -0.3716
6.5400 -4.3286 -0.3696
6.5600 -4.3420 -0.3682
6.5800 -4.3554 -0.3662
6.6000 -4.3687 -0.3653
6.6200 -4.3820 -0.3659
6.6400 -4.3953 -0.3640
6.6600 -4.4087 -0.3629
6.6800 -4.4221 -0.3608
6.7000 -4.4354 -0.3604
6.7200 -4.4487 -0.3611
6.7400 -4.4621 -0.3604
6.7600 -4.4754 -0.3591
6.7800 -4.4888 -0.3582
6.8000 -4.5020 -0.3566
6.8200 -4.5153 -0.3568
6.8400 -4.5287 -0.3556
6.8600 -4.5420 -0.3542
6.8800 -4.5553 -0.3536
6.9000 -4.5686 -0.3536
6.9200 -4.5820 -0.3523
6.9400 -4.5954 -0.3514
6.9600 -4.6087 -0.3514
6.9800 -4.6220 -0.3503
7.0000 -4.6354 -0.3510
7.0200 -4.6488 -0.3502
7.0400 -4.6621 -0.3490
7.0600 -4.6754 -0.3472
7.0800 -4.6887 -0.3465
7.1000 -4.7021 -0.3463
7.1200 -4.7154 -0.3453
7.1400 -4.7288 -0.3457
7.1600 -4.7421 -0.3438
7.1800 -4.7554 -0.3405
7.2000 -4.7687 -0.3421
7.2200 -4.7821 -0.3402
7.2400 -4.7953 -0.3390
7.2600 -4.8087 -0.3396
7.2800 -4.8220 -0.3370
7.3000 -4.8354 -0.3362
7.3200 -4.8487 -0.3370
7.3400 -4.8620 -0.3344
7.3600 -4.8754 -0.3359
7.3800 -4.8887 -0.3337
7.4000 -4.9021 -0.3322
7.4200 -4.9154 -0.3320
7.4400 -4.9287 -0.3326
7.4600 -4.9421 -0.3298
7.4800 -4.9554 -0.3301
7.5000 -4.9688 -0.3283
7.5200 -4.9821 -0.3287
7.5400 -4.9954 -0.3265
7.5600 -5.0087 -0.3265
7.5800 -5.0220 -0.3244
7.6000 -5.0353 -0.3253
7.6200 -5.0486 -0.3231
7.6400 -5.0620 -0.3216
7.6600 -5.0754 -0.3202
7.6800 -5.0887 -0.3195
7.7000 -5.1020 -0.3200
7.7200 -5.1154 -0.3175
7.7400 -5.1287 -0.3186
7.7600 -5.1421 -0.3163
7.7800 -5.1554 -0.3155
7.8000 -5.1687 -0.3147
7.8200 -5.1820 -0.3148
7.8400 -5.1954 -0.3128
7.8600 -5.2087 -0.3125
7.8800 -5.2220 -0.3117
7.9000 -5.2353 -0.3110
7.9200 -5.2487 -0.3089
7.9400 -5.2620 -0.3099
7.9600 -5.2753 -0.3075
7.9800 -5.2886 -0.3082
8.0000 -5.3020 -0.3061
8.0200 -5.3154 -0.3062
8.0400 -5.3287 -0.3040
8.0600 -5.3420 -0.3050
8.0800 -5.3554 -0.3034
8.1000 -5.3687 -0.3041
8.1200 -5.3821 -0.3004
8.1400 -5.3954 -0.3014
8.1600 -5.4087 -0.2983
8.1800 -5.4221 -0.3009
8.2000 -5.4354 -0.3002
8.2200 -5.4488 -0.3004
8.2400 -5.4621 -0.2966
8.2600 -5.4754 -0.2972
8.2800 -5.4887 -0.2958
8.3000 -5.5020 -0.2946
8.3200 -5.5153 -0.2927
8.3400 -5.5286 -0.2923
8.3600 -5.5420 -0.2904
8.3800 -5.5553 -0.2920
8.4000 -5.5687 -0.2899
8.4200 -5.5820 -0.2905
8.4400 -5.5953 -0.2891
8.4600 -5.6087 -0.2865
8.4800 -5.6221 -0.2853
8.5000 -5.6354 -0.2857
8.5200 -5.6488 -0.2846
8.5400 -5.6621 -0.2838
8.5600 -5.6754 -0.2820
8.5800 -5.6888 -0.2816
8.6000 -5.7021 -0.2799
8.6200 -5.7154 -0.2807
8.6400 -5.7287 -0.2782
8.6600 -5.7420 -0.2769
8.6800 -5.7553 -0.2758
8.7000 -5.7686 -0.2745
8.7200 -5.7820 -0.2728
8.7400 -5.7953 -0.2736
8.7600 -5.8087 -0.2713
8.7800 -5.8220 -0.2727
8.8000 -5.8354 -0.2742
8.8200 -5.8487 -0.2716
8.8400 -5.8621 -0.2704
8.8600 -5.8754 -0.2704
8.8800 -5.8887 -0.2696
8.9000 -5.9021 -0.2669
8.9200 -5.9155 -0.2702
8.9400 -5.9288 -0.2657
8.9600 -5.9421 -0.2685
8.9800 -5.9554 -0.2660
9.0000 -5.9687 -0.2660
9.0200 -5.9820 -0.2636
9.0400 -5.9953 -0.2663
9.0600 -6.0086 -0.2639
9.0800 -6.0220 -0.2626
9.1000 -6.0354 -0.2585
9.1200 -6.0487 -0.2585
9.1400 -6.0620 -0.2584
9.1600 -6.0754 -0.2590
9.1800 -6.0887 -0.2562
9.2000 -6.1021 -0.2566
9.2200 -6.1154 -0.2570
9.2400 -6.1287 -0.2541
9.2600 -6.1420 -0.2562
9.2800 -6.1554 -0.2564
9.3000 -6.1687 -0.2523
9.3200 -6.1821 -0.2522
9.3400 -6.1954 -0.2524
9.3600 -6.2087 -0.2514
9.3800 -6.2221 -0.2490
9.4000 -6.2354 -0.2513
9.4200 -6.2487 -0.2489
9.4400 -6.2620 -0.2469
9.4600 -6.2753 -0.2480
9.4800 -6.2887 -0.2480
9.5000 -6.3020 -0.2446
9.5200 -6.3154 -0.2458
9.5400 -6.3287 -0.2411
9.5600 -6.3421 -0.2436
9.5800 -6.3554 -0.2436
9.6000 -6.3687 -0.2424
9.6200 -6.3821 -0.2412
9.6400 -6.3954 -0.2399
9.6600 -6.4088 -0.2391
9.6800 -6.4221 -0.2374
9.7000 -6.4354 -0.2378
9.7200 -6.4487 -0.2348
9.7400 -6.4621 -0.2350
9.7600 -6.4754 -0.2338
9.7800 -6.4887 -0.2335
9.8000 -6.5020 -0.2316
9.8200 -6.5153 -0.2336
9.8400 -6.5287 -0.2285
9.8600 -6.5420 -0.2290
9.8800 -6.5554 -0.2294
9.9000 -6.5687 -0.2272
9.9200 -6.5821 -0.2259
9.9400 -6.5954 -0.2284
9.9600 -6.6087 -0.2258
9.9800 -6.6220 -0.2261
10.0000 -6.6354 -0.2247
10.0200 -6.6488 -0.2234
10.0400 -6.6621 -0.2231
10.0600 -6.6754 -0.2233
10.0800 -6.6887 -0.2190
10.1000 -6.7021 -0.2192
10.1200 -6.7154 -0.2191
10.1400 -6.7287 -0.2197
10.1600 -6.7420 -0.2176
10.1800 -6.7553 -0.2168
10.2000 -6.7687 -0.2144
10.2200 -6.7820 -0.2139
10.2400 -6.7953 -0.2153
10.2600 -6.8087 -0.2148
10.2800 -6.8221 -0.2131
10.3000 -6.8354 -0.2147
10.3200 -6.8487 -0.2127
10.3400 -6.8620 -0.2126
10.3600 -6.8754 -0.2103
10.3800 -6.8888 -0.2072
10.4000 -6.9021 -0.2057
10.4200 -6.9154 -0.2073
10.4400 -6.9287 -0.2056
10.4600 -6.9421 -0.2037
10.4800 -6.9554 -0.2029
10.5000 -6.9687 -0.2052
10.5200 -6.9820 -0.2041
10.5400 -6.9953 -0.2033
10.5600 -7.0087 -0.1999
10.5800 -7.0220 -0.1983
10.6000 -7.0354 -0.2028
10.6200 -7.0487 -0.1986
10.6400 -7.0621 -0.1967
10.6600 -7.0754 -0.1950
10.6800 -7.0887 -0.1953
10.7000 -7.1020 -0.1939
10.7200 -7.1154 -0.1963
10.7400 -7.1287 -0.1944
10.7600 -7.1420 -0.1907
10.7800 -7.1554 -0.1897
10.8000 -7.1687 -0.1907
10.8200 -7.1820 -0.1892
10.8400 -7.1953 -0.1899
10.8600 -7.2086 -0.1889
10.8800 -7.2220 -0.1857
10.9000 -7.2353 -0.1887
10.9200 -7.2487 -0.1855
10.9400 -7.2621 -0.1869
10.9600 -7.2754 -0.1851
10.9800 -7.2887 -0.1854
11.0000 -7.3021 -0.1834
11.0200 -7.3154 -0.1854
11.0400 -7.3287 -0.1833
11.0600 -7.3420 -0.1824
11.0800 -7.3554 -0.1803
11.1000 -7.3688 -0.1800
11.1200 -7.3821 -0.1813
11.1400 -7.3954 -0.1800
11.1600 -7.4087 -0.1775
11.1800 -7.4220 -0.1774
11.2000 -7.4354 -0.1775
11.2200 -7.4487 -0.1746
11.2400 -7.4620 -0.1751
11.2600 -7.4753 -0.1737
11.2800 -7.4887 -0.1735
11.3000 -7.5020 -0.1711
11.3200 -7.5154 -0.1732
11.3400 -7.5287 -0.1715
11.3600 -7.5421 -0.1688
11.3800 -7.5554 -0.1684
11.4000 -7.5687 -0.1653
11.4200 -7.5820 -0.1657
11.4400 -7.5954 -0.1656
11.4600 -7.6087 -0.1638
11.4800 -7.6221 -0.1603
11.5000 -7.6354 -0.1618
11.5200 -7.6487 -0.1598
11.5400 -7.6621 -0.1615
11.5600 -7.6754 -0.1586
11.5800 -7.6887 -0.1607
11.6000 -7.7020 -0.1564
11.6200 -7.7153 -0.1575
11.6400 -7.7286 -0.1576
11.6600 -7.7420 -0.1554
11.6800 -7.7553 -0.1555
11.7000 -7.7687 -0.1543
11.7200 -7.7821 -0.1524
11.7400 -7.7954 -0.1529
11.7600 -7.8087 -0.1525
11.7800 -7.8221 -0.1520
11.8000 -7.8354 -0.1515
11.8200 -7.8488 -0.1515
11.8400 -7.8621 -0.1488
11.8600 -7.8754 -0.1496
11.8800 -7.8887 -0.1478
11.9000 -7.9020 -0.1455
11.9200 -7.9154 -0.1460
11.9400 -7.9287 -0.1450
11.9600 -7.9420 -0.1453
11.9800 -7.9553 -0.1449
12.0000 -7.9687 -0.1454
12.0200 -7.9820 -0.1436
12.0400 -7.9954 -0.1442
12.0600 -8.0087 -0.1414
12.0800 -8.0221 -0.1413
12.1000 -8.0354 -0.1409
12.1200 -8.0487 -0.1410
12.1400 -8.0620 -0.1363
12.1600 -8.0754 -0.1376
12.1800 -8.0887 -0.1359
12.2000 -8.1021 -0.1347
12.2200 -8.1154 -0.1346
12.2400 -8.1287 -0.1355
12.2600 -8.1420 -0.1321
12.2800 -8.1554 -0.1327
12.3000 -8.1687 -0.1295
12.3200 -8.1820 -0.1303
12.3400 -8.1953 -0.1285
12.3600 -8.2087 -0.1291
12.3800 -8.2220 -0.1258
12.4000 -8.2353 -0.1266
12.4200 -8.2487 -0.1248
12.4400 -8.2621 -0.1253
12.4600 -8.2754 -0.1233
12.4800 -8.2887 -0.1238
12.5000 -8.3021 -0.1226
12.5200 -8.3154 -0.1216
12.5400 -8.3288 -0.1200
12.5600 -8.3421 -0.1183
12.5800 -8.3554 -0.1200
12.6000 -8.3687 -0.1196
12.6200 -8.3820 -0.1169
12.6400 -8.3954 -0.1161
12.6600 -8.4087 -0.1152
12.6800 -8.4219 -0.1126
12.7000 -8.4353 -0.1140
12.7200 -8.4487 -0.1133
12.7400 -8.4620 -0.1100
12.7600 -8.4753 -0.1122
12.7800 -8.4887 -0.1114
12.8000 -8.5020 -0.1071
12.8200 -8.5154 -0.1079
12.8400 -8.5287 -0.1069
12.8600 -8.5420 -0.1078
12.8800 -8.5554 -0.1072
12.9000 -8.5687 -0.1080
12.9200 -8.5821 -0.1023
12.9400 -8.5954 -0.1033
12.9600 -8.6087 -0.1030
12.9800 -8.6221 -0.1034
13.0000 -8.6354 -0.1008
13.0200 -8.6487 -0.1001
13.0400 -8.6620 -0.0998
13.0600 -8.6753 -0.1018
13.0800 -8.6887 -0.0983
13.1000 -8.7020 -0.0983
13.1200 -8.7153 -0.0977
13.1400 -8.7287 -0.0998
13.1600 -8.7420 -0.0976
13.1800 -8.7554 -0.0990
13.2000 -8.7687 -0.0970
13.2200 -8.7821 -0.0952
13.2400 -8.7954 -0.0948
13.2600 -8.8088 -0.0944
13.2800 -8.8221 -0.0913
13.3000 -8.8354 -0.0930
13.3200 -8.8488 -0.0897
13.3400 -8.8621 -0.0890
13.3600 -8.8754 -0.0882
13.3800 -8.8887 -0.0900
13.4000 -8.9020 -0.0882
13.4200 -8.9153 -0.0876
13.4400 -8.9287 -0.0875
13.4600 -8.9420 -0.0848
13.4800 -8.9553 -0.0872
13.5000 -8.9686 -0.0850
13.5200 -8.9820 -0.0825
13.5400 -8.9954 -0.0827
13.5600 -9.0087 -0.0843
13.5800 -9.0220 -0.0803
13.6000 -9.0354 -0.0790
13.6200 -9.0487 -0.0800
13.6400 -9.0621 -0.0763
13.6600 -9.0754 -0.0779
13.6800 -9.0887 -0.0789
13.7000 -9.1021 -0.0754
13.7200 -9.1154 -0.0760
13.7400 -9.1287 -0.0760
13.7600 -9.1420 -0.0747
13.7800 -9.1553 -0.0731
13.8000 -9.1687 -0.0739
13.8200 -9.1820 -0.0728
13.8400 -9.1953 -0.0744
13.8600 -9.2086 -0.0733
13.8800 -9.2220 -0.0721
13.9000 -9.2354 -0.0715
13.9200 -9.2488 -0.0720
13.9400 -9.2621 -0.0696
13.9600 -9.2754 -0.0695
13.9800 -9.2888 -0.0673
14.0000 -9.3021 -0.0678
14.0200 -9.3154 -0.0655
14.0400 -9.3287 -0.0701
14.0600 -9.3420 -0.0630
14.0800 -9.3553 -0.0641
14.1000 -9.3686 -0.0626
14.1200 -9.3819 -0.0622
14.1400 -9.3953 -0.0609
14.1600 -9.4087 -0.0606
14.1800 -9.4220 -0.0587
14.2000 -9.4354 -0.0574
14.2200 -9.4487 -0.0564
14.2400 -9.4621 -0.0561
14.2600 -9.4754 -0.0547
14.2800 -9.4888 -0.0563
14.3000 -9.5021 -0.0532
14.3200 -9.5154 -0.0556
14.3400 -9.5288 -0.0520
14.3600 -9.5421 -0.0516
14.3800 -9.5554 -0.0527
14.4000 -9.5687 -0.0545
14.4200 -9.5821 -0.0526
14.4400 -9.5954 -0.0506
14.4600 -9.6087 -0.0516
14.4800 -9.6220 -0.0508
14.5000 -9.6353 -0.0497
14.5200 -9.6487 -0.0506
14.5400 -9.6620 -0.0480
14.5600 -9.6754 -0.0479
14.5800 -9.6887 -0.0488
14.6000 -9.7020 -0.0443
14.6200 -9.7154 -0.0459
14.6400 -9.7288 -0.0435
14.6600 -9.7420 -0.0415
14.6800 -9.7554 -0.0411
14.7000 -9.7687 -0.0416
14.7200 -9.7821 -0.0383
14.7400 -9.7954 -0.0388
14.7600 -9.8087 -0.0377
14.7800 -9.8220 -0.0364
14.8000 -9.8354 -0.0344
14.8200 -9.8487 -0.0360
14.8400 -9.8620 -0.0306
14.8600 -9.8753 -0.0323
14.8800 -9.8887 -0.0317
14.9000 -9.9020 -0.0313
14.9200 -9.9154 -0.0299
14.9400 -9.9287 -0.0313
14.9600 -9.9420 -0.0275
14.9800 -9.9554 -0.0271
15.0000 -9.9688 -0.0271
15.0200 -9.9821 -0.0251
15.0400 -9.9954 -0.0241
15.0600 -10.0087 -0.0251
15.0800 -10.0221 -0.0231
15.1000 -10.0354 -0.0233
15.1200 -10.0487 -0.0252
15.1400 -10.0620 -0.0229
15.1600 -10.0754 -0.0197
15.1800 -10.0887 -0.0215
15.2000 -10.1020 -0.0191
15.2200 -10.1153 -0.0178
15.2400 -10.1287 -0.0166
15.2600 -10.1421 -0.0159
15.2800 -10.1554 -0.0161
15.3000 -10.1687 -0.0160
15.3200 -10.1820 -0.0148
15.3400 -10.1954 -0.0120
15.3600 -10.2088 -0.0144
15.3800 -10.2221 -0.0140
15.4000 -10.2354 -0.0114
15.4200 -10.2488 -0.0117
15.4400 -10.2621 -0.0083
15.4600 -10.2754 -0.0091
15.4800 -10.2887 -0.0090
15.5000 -10.3020 -0.0084
15.5200 -10.3154 -0.0061
15.5400 -10.3287 -0.0082
15.5600 -10.3420 -0.0072
15.5800 -10.3553 -0.0039
15.6000 -10.3686 -0.0050
15.6200 -10.3820 -0.0036
15.6400 -10.3953 -0.0043
15.6600 -10.4087 -0.0044
15.6800 -10.4220 -0.0011
15.7000 -10.4354 -0.0007
15.7200 -10.4488 -0.0028
15.7400 -10.4621 0.0029
15.7600 -10.4754 0.0022
15.7800 -10.4888 0.0026
15.8000 -10.5021 0.0047
15.8200 -10.5154 0.0057
15.8400 -10.5287 0.0027
15.8600 -10.5421 0.0062
15.8800 -10.5554 0.0071
15.9000 -10.5687 0.0067
15.9200 -10.5820 0.0060
15.9400 -10.5953 0.0082
15.9600 -10.6086 0.0056
15.9800 -10.6220 0.0097
16.0000 -10.6353 0.0110
16.0200 -10.6487 0.0100
16.0400 -10.6620 0.0108
16.0600 -10.6754 0.0132
16.0800 -10.6888 0.0112
16.1000 -10.7021 0.0148
16.1200 -10.7154 0.0149
16.1400 -10.7287 0.0146
16.1600 -10.7421 0.0163
16.1800 -10.7554 0.0173
16.2000 -10.7687 0.0151
16.2200 -10.7820 0.0190
16.2400 -10.7954 0.0206
16.2600 -10.8087 0.0223
16.2800 -10.8220 0.0215
16.3000 -10.8353 0.0232
