Raw Data
Time Displacement Force
(s) (mm) (N)
0.0000 0.0000 -0.3885
0.0200 -0.0001 -0.3934
0.0400 -0.0020 -0.4049
0.0600 -0.0094 -0.4043
0.0800 -0.0210 -0.3932
0.1000 -0.0334 -0.3957
0.1200 -0.0461 -0.3930
0.1400 -0.0596 -0.3945
0.1600 -0.0737 -0.3902
0.1800 -0.0879 -0.3918
0.2000 -0.1018 -0.3919
0.2200 -0.1154 -0.3904
0.2400 -0.1288 -0.3918
0.2600 -0.1422 -0.3903
0.2800 -0.1554 -0.3882
0.3000 -0.1687 -0.3881
0.3200 -0.1821 -0.3898
0.3400 -0.1955 -0.3858
0.3600 -0.2088 -0.3873
0.3800 -0.2221 -0.3867
0.4000 -0.2354 -0.3848
0.4200 -0.2488 -0.3834
0.4400 -0.2622 -0.3849
0.4600 -0.2755 -0.3822
0.4800 -0.2888 -0.3844
0.5000 -0.3022 -0.3814
0.5200 -0.3156 -0.3773
0.5400 -0.3289 -0.3799
0.5600 -0.3422 -0.3797
0.5800 -0.3555 -0.3782
0.6000 -0.3689 -0.3762
0.6200 -0.3822 -0.3769
0.6400 -0.3955 -0.3747
0.6600 -0.4088 -0.3751
0.6800 -0.4222 -0.3732
0.7000 -0.4355 -0.3730
0.7200 -0.4488 -0.3725
0.7400 -0.4621 -0.3721
0.7600 -0.4755 -0.3704
0.7800 -0.4888 -0.3721
0.8000 -0.5022 -0.3711
0.8200 -0.5155 -0.3685
0.8400 -0.5289 -0.3695
0.8600 -0.5422 -0.3694
0.8800 -0.5556 -0.3682
0.9000 -0.5689 -0.3675
0.9200 -0.5822 -0.3661
0.9400 -0.5955 -0.3642
0.9600 -0.6089 -0.3639
0.9800 -0.6223 -0.3649
1.0000 -0.6356 -0.3621
1.0200 -0.6488 -0.3628
1.0400 -0.6622 -0.3618
1.0600 -0.6755 -0.3603
1.0800 -0.6888 -0.3591
1.1000 -0.7021 -0.3609
1.1200 -0.7154 -0.3581
1.1400 -0.7288 -0.3587
1.1600 -0.7421 -0.3592
1.1800 -0.7555 -0.3541
1.2000 -0.7688 -0.3587
1.2200 -0.7822 -0.3570
1.2400 -0.7956 -0.3568
1.2600 -0.8089 -0.3537
1.2800 -0.8222 -0.3555
1.3000 -0.8355 -0.3515
1.3200 -0.8489 -0.3538
1.3400 -0.8623 -0.3515
1.3600 -0.8756 -0.3497
1.3800 -0.8888 -0.3492
1.4000 -0.9022 -0.3497
1.4200 -0.9155 -0.3477
1.4400 -0.9288 -0.3479
1.4600 -0.9421 -0.3488
1.4800 -0.9554 -0.3467
1.5000 -0.9688 -0.3442
1.5200 -0.9821 -0.3447
1.5400 -0.9955 -0.3425
1.5600 -1.0088 -0.3423
1.5800 -1.0222 -0.3429
1.6000 -1.0355 -0.3403
1.6200 -1.0489 -0.3412
1.6400 -1.0622 -0.3421
1.6600 -1.0755 -0.3381
1.6800 -1.0889 -0.3412
1.7000 -1.1022 -0.3376
1.7200 -1.1155 -0.3380
1.7400 -1.1288 -0.3345
1.7600 -1.1422 -0.3365
1.7800 -1.1555 -0.3342
1.8000 -1.1688 -0.3352
1.8200 -1.1821 -0.3355
1.8400 -1.1954 -0.3333
1.8600 -1.2088 -0.3343
1.8800 -1.2222 -0.3342
1.9000 -1.2355 -0.3308
1.9200 -1.2488 -0.3291
1.9400 -1.2622 -0.3317
1.9600 -1.2756 -0.3271
1.9800 -1.2889 -0.3280
2.0000 -1.3021 -0.3274
2.0200 -1.3154 -0.3262
2.0400 -1.3288 -0.3254
2.0600 -1.3422 -0.3288
2.0800 -1.3555 -0.3230
2.1000 -1.3688 -0.3232
2.1200 -1.3822 -0.3226
2.1400 -1.3955 -0.3210
2.1600 -1.4089 -0.3190
2.1800 -1.4222 -0.3218
2.2000 -1.4355 -0.3199
2.2200 -1.4488 -0.3227
2.2400 -1.4622 -0.3212
2.2600 -1.4755 -0.3218
2.2800 -1.4888 -0.3189
2.3000 -1.5022 -0.3201
2.3200 -1.5156 -0.3161
2.3400 -1.5289 -0.3165
2.3600 -1.5422 -0.3175
2.3800 -1.5555 -0.3152
2.4000 -1.5689 -0.3149
2.4200 -1.5823 -0.3153
2.4400 -1.5956 -0.3129
2.4600 -1.6089 -0.3141
2.4800 -1.6222 -0.3147
2.5000 -1.6355 -0.3112
2.5200 -1.6488 -0.3111
2.5400 -1.6621 -0.3102
2.5600 -1.6754 -0.3081
2.5800 -1.6888 -0.3086
2.6000 -1.7021 -0.3092
2.6200 -1.7155 -0.3051
2.6400 -1.7288 -0.3072
2.6600 -1.7422 -0.3071
2.6800 -1.7555 -0.3035
2.7000 -1.7689 -0.3041
2.7200 -1.7822 -0.3038
2.7400 -1.7955 -0.3035
2.7600 -1.8089 -0.3035
2.7800 -1.8222 -0.3032
2.8000 -1.8355 -0.3016
2.8200 -1.8488 -0.3010
2.8400 -1.8622 -0.2994
2.8600 -1.8755 -0.2991
2.8800 -1.8888 -0.2971
2.9000 -1.9021 -0.2998
2.9200 -1.9154 -0.2988
2.9400 -1.9288 -0.2968
2.9600 -1.9422 -0.2979
2.9800 -1.9555 -0.2960
3.0000 -1.9688 -0.2955
3.0200 -1.9821 -0.2949
3.0400 -1.9955 -0.2932
3.0600 -2.0089 -0.2914
3.0800 -2.0222 -0.2940
3.1000 -2.0355 -0.2897
3.1200 -2.0488 -0.2913
3.1400 -2.0622 -0.2928
3.1600 -2.0756 -0.2895
3.1800 -2.0889 -0.2900
3.2000 -2.1022 -0.2900
3.2200 -2.1155 -0.2862
3.2400 -2.1289 -0.2871
3.2600 -2.1422 -0.2887
3.2800 -2.1555 -0.2875
3.3000 -2.1688 -0.2877
3.3200 -2.1822 -0.2859
3.3400 -2.1955 -0.2851
3.3600 -2.2088 -0.2830
3.3800 -2.2222 -0.2856
3.4000 -2.2355 -0.2816
3.4200 -2.2489 -0.2812
3.4400 -2.2622 -0.2819
3.4600 -2.2755 -0.2795
3.4800 -2.2888 -0.2779
3.5000 -2.3022 -0.2802
3.5200 -2.3155 -0.2786
3.5400 -2.3288 -0.2796
3.5600 -2.3421 -0.2787
3.5800 -2.3555 -0.2777
3.6000 -2.3688 -0.2745
3.6200 -2.3821 -0.2743
3.6400 -2.3954 -0.2759
3.6600 -2.4088 -0.2744
3.6800 -2.4222 -0.2775
3.7000 -2.4355 -0.2743
3.7200 -2.4488 -0.2724
3.7400 -2.4622 -0.2720
3.7600 -2.4755 -0.2731
3.7800 -2.4889 -0.2694
3.8000 -2.5022 -0.2720
3.8200 -2.5155 -0.2695
3.8400 -2.5288 -0.2717
3.8600 -2.5422 -0.2699
3.8800 -2.5556 -0.2694
3.9000 -2.5689 -0.2668
3.9200 -2.5822 -0.2699
3.9400 -2.5955 -0.2650
3.9600 -2.6088 -0.2652
3.9800 -2.6221 -0.2641
4.0000 -2.6355 -0.2654
4.0200 -2.6488 -0.2629
4.0400 -2.6622 -0.2654
4.0600 -2.6755 -0.2615
4.0800 -2.6888 -0.2608
4.1000 -2.7021 -0.2621
4.1200 -2.7155 -0.2625
4.1400 -2.7289 -0.2604
4.1600 -2.7422 -0.2608
4.1800 -2.7555 -0.2597
4.2000 -2.7688 -0.2598
4.2200 -2.7822 -0.2583
4.2400 -2.7955 -0.2564
4.2600 -2.8089 -0.2551
4.2800 -2.8222 -0.2584
4.3000 -2.8356 -0.2560
4.3200 -2.8489 -0.2553
4.3400 -2.8622 -0.2542
4.3600 -2.8755 -0.2554
4.3800 -2.8888 -0.2513
4.4000 -2.9021 -0.2542
4.4200 -2.9154 -0.2514
4.4400 -2.9287 -0.2512
4.4600 -2.9421 -0.2510
4.4800 -2.9555 -0.2526
4.5000 -2.9689 -0.2502
4.5200 -2.9822 -0.2522
4.5400 -2.9955 -0.2497
4.5600 -3.0089 -0.2481
4.5800 -3.0223 -0.2502
4.6000 -3.0356 -0.2491
4.6200 -3.0489 -0.2470
4.6400 -3.0622 -0.2491
4.6600 -3.0755 -0.2493
4.6800 -3.0888 -0.2458
4.7000 -3.1022 -0.2475
4.7200 -3.1155 -0.2435
4.7400 -3.1288 -0.2459
4.7600 -3.1422 -0.2443
4.7800 -3.1555 -0.2455
4.8000 -3.1688 -0.2424
4.8200 -3.1822 -0.2443
4.8400 -3.1955 -0.2416
4.8600 -3.2089 -0.2417
4.8800 -3.2222 -0.2413
4.9000 -3.2355 -0.2421
4.9200 -3.2488 -0.2400
4.9400 -3.2622 -0.2406
4.9600 -3.2755 -0.2395
4.9800 -3.2889 -0.2383
5.0000 -3.3022 -0.2388
5.0200 -3.3155 -0.2377
5.0400 -3.3289 -0.2358
5.0600 -3.3422 -0.2389
5.0800 -3.3554 -0.2386
5.1000 -3.3688 -0.2357
5.1200 -3.3821 -0.2367
5.1400 -3.3955 -0.2353
5.1600 -3.4088 -0.2322
5.1800 -3.4222 -0.2349
5.2000 -3.4355 -0.2332
5.2200 -3.4489 -0.2324
5.2400 -3.4622 -0.2315
5.2600 -3.4755 -0.2336
5.2800 -3.4889 -0.2287
5.3000 -3.5022 -0.2328
5.3200 -3.5156 -0.2292
5.3400 -3.5289 -0.2296
5.3600 -3.5422 -0.2285
5.3800 -3.5555 -0.2286
5.4000 -3.5688 -0.2266
5.4200 -3.5821 -0.2266
5.4400 -3.5954 -0.2258
5.4600 -3.6087 -0.2245
5.4800 -3.6221 -0.2259
5.5000 -3.6355 -0.2254
5.5200 -3.6488 -0.2255
5.5400 -3.6621 -0.2259
5.5600 -3.6755 -0.2263
5.5800 -3.6889 -0.2245
5.6000 -3.7022 -0.2253
5.6200 -3.7156 -0.2231
5.6400 -3.7289 -0.2218
5.6600 -3.7422 -0.2232
5.6800 -3.7556 -0.2229
5.7000 -3.7689 -0.2193
5.7200 -3.7822 -0.2209
5.7400 -3.7955 -0.2203
5.7600 -3.8089 -0.2192
5.7800 -3.8222 -0.2168
5.8000 -3.8355 -0.2195
5.8200 -3.8488 -0.2164
5.8400 -3.8621 -0.2192
5.8600 -3.8755 -0.2171
5.8800 -3.8888 -0.2147
5.9000 -3.9021 -0.2147
5.9200 -3.9155 -0.2169
5.9400 -3.9288 -0.2142
5.9600 -3.9422 -0.2150
5.9800 -3.9555 -0.2132
6.0000 -3.9688 -0.2141
6.0200 -3.9822 -0.2130
6.0400 -3.9956 -0.2146
6.0600 -4.0089 -0.2103
6.0800 -4.0222 -0.2121
6.1000 -4.0355 -0.2112
6.1200 -4.0489 -0.2100
6.1400 -4.0622 -0.2108
6.1600 -4.0755 -0.2096
6.1800 -4.0888 -0.2086
6.2000 -4.1021 -0.2074
6.2200 -4.1155 -0.2085
6.2400 -4.1288 -0.2066
6.2600 -4.1421 -0.2068
6.2800 -4.1555 -0.2078
6.3000 -4.1689 -0.2061
6.3200 -4.1822 -0.2047
6.3400 -4.1955 -0.2047
6.3600 -4.2088 -0.2031
6.3800 -4.2222 -0.2030
6.4000 -4.2356 -0.2027
6.4200 -4.2489 -0.2015
6.4400 -4.2622 -0.2022
6.4600 -4.2755 -0.2007
6.4800 -4.2889 -0.1996
6.5000 -4.3022 -0.1989
6.5200 -4.3155 -0.1998
6.5400 -4.3288 -0.1988
6.5600 -4.3421 -0.1991
6.5800 -4.3555 -0.1990
6.6000 -4.3688 -0.1995
6.6200 -4.3821 -0.1987
6.6400 -4.3955 -0.1986
6.6600 -4.4089 -0.1976
6.6800 -4.4223 -0.1959
6.7000 -4.4356 -0.1961
6.7200 -4.4489 -0.1926
6.7400 -4.4622 -0.1951
6.7600 -4.4756 -0.1938
6.7800 -4.4889 -0.1896
6.8000 -4.5022 -0.1909
6.8200 -4.5155 -0.1937
6.8400 -4.5288 -0.1930
6.8600 -4.5421 -0.1931
6.8800 -4.5554 -0.1929
6.9000 -4.5687 -0.1894
6.9200 -4.5821 -0.1904
6.9400 -4.5955 -0.1904
6.9600 -4.6088 -0.1918
6.9800 -4.6222 -0.1911
7.0000 -4.6355 -0.1921
7.0200 -4.6489 -0.1881
7.0400 -4.6623 -0.1890
7.0600 -4.6756 -0.1885
7.0800 -4.6889 -0.1871
7.1000 -4.7022 -0.1862
7.1200 -4.7156 -0.1877
7.1400 -4.7289 -0.1859
7.1600 -4.7422 -0.1865
7.1800 -4.7555 -0.1858
7.2000 -4.7689 -0.1842
7.2200 -4.7822 -0.1840
7.2400 -4.7955 -0.1842
7.2600 -4.8088 -0.1839
7.2800 -4.8221 -0.1849
7.3000 -4.8355 -0.1840
7.3200 -4.8488 -0.1792
7.3400 -4.8621 -0.1822
7.3600 -4.8755 -0.1809
7.3800 -4.8889 -0.1804
7.4000 -4.9022 -0.1787
7.4200 -4.9155 -0.1828
7.4400 -4.9288 -0.1806
7.4600 -4.9422 -0.1809
7.4800 -4.9556 -0.1795
7.5000 -4.9689 -0.1768
7.5200 -4.9822 -0.1749
7.5400 -4.9955 -0.1766
7.5600 -5.0088 -0.1768
7.5800 -5.0222 -0.1772
7.6000 -5.0355 -0.1765
7.6200 -5.0488 -0.1761
7.6400 -5.0621 -0.1739
7.6600 -5.0755 -0.1762
7.6800 -5.0889 -0.1721
7.7000 -5.1022 -0.1738
7.7200 -5.1155 -0.1733
7.7400 -5.1289 -0.1719
7.7600 -5.1422 -0.1702
7.7800 -5.1555 -0.1739
7.8000 -5.1688 -0.1705
7.8200 -5.1822 -0.1711
7.8400 -5.1955 -0.1707
7.8600 -5.2088 -0.1695
7.8800 -5.2221 -0.1685
7.9000 -5.2355 -0.1693
7.9200 -5.2488 -0.1670
7.9400 -5.2621 -0.1682
7.9600 -5.2754 -0.1698
7.9800 -5.2888 -0.1663
8.0000 -5.3021 -0.1675
8.0200 -5.3155 -0.1671
8.0400 -5.3289 -0.1643
8.0600 -5.3422 -0.1654
8.0800 -5.3555 -0.1650
8.1000 -5.3689 -0.1616
8.1200 -5.3822 -0.1626
8.1400 -5.3955 -0.1631
8.1600 -5.4088 -0.1629
8.1800 -5.4222 -0.1618
8.2000 -5.4356 -0.1644
8.2200 -5.4489 -0.1599
8.2400 -5.4622 -0.1617
8.2600 -5.4755 -0.1603
8.2800 -5.4888 -0.1605
8.3000 -5.5022 -0.1602
8.3200 -5.5154 -0.1617
8.3400 -5.5287 -0.1566
8.3600 -5.5421 -0.1577
8.3800 -5.5555 -0.1573
8.4000 -5.5688 -0.1577
8.4200 -5.5821 -0.1578
8.4400 -5.5955 -0.1595
8.4600 -5.6089 -0.1564
8.4800 -5.6222 -0.1549
8.5000 -5.6356 -0.1550
8.5200 -5.6489 -0.1544
8.5400 -5.6622 -0.1534
8.5600 -5.6756 -0.1564
8.5800 -5.6889 -0.1523
8.6000 -5.7022 -0.1520
8.6200 -5.7155 -0.1536
8.6400 -5.7288 -0.1517
8.6600 -5.7421 -0.1512
8.6800 -5.7554 -0.1506
8.7000 -5.7687 -0.1508
8.7200 -5.7821 -0.1483
8.7400 -5.7955 -0.1496
8.7600 -5.8088 -0.1479
8.7800 -5.8221 -0.1484
8.8000 -5.8355 -0.1489
8.8200 -5.8488 -0.1473
8.8400 -5.8622 -0.1473
8.8600 -5.8756 -0.1489
8.8800 -5.8889 -0.1464
8.9000 -5.9022 -0.1458
8.9200 -5.9156 -0.1471
8.9400 -5.9289 -0.1436
8.9600 -5.9422 -0.1447
8.9800 -5.9555 -0.1456
9.0000 -5.9688 -0.1435
9.0200 -5.9822 -0.1430
9.0400 -5.9955 -0.1443
9.0600 -6.0087 -0.1433
9.0800 -6.0221 -0.1405
9.1000 -6.0355 -0.1412
9.1200 -6.0489 -0.1390
9.1400 -6.0622 -0.1420
9.1600 -6.0755 -0.1406
9.1800 -6.0889 -0.1417
9.2000 -6.1022 -0.1396
9.2200 -6.1155 -0.1415
9.2400 -6.1288 -0.1374
9.2600 -6.1421 -0.1376
9.2800 -6.1555 -0.1389
9.3000 -6.1689 -0.1384
9.3200 -6.1822 -0.1347
9.3400 -6.1955 -0.1372
9.3600 -6.2088 -0.1345
9.3800 -6.2222 -0.1353
9.4000 -6.2355 -0.1359
9.4200 -6.2488 -0.1343
9.4400 -6.2621 -0.1331
9.4600 -6.2755 -0.1337
9.4800 -6.2888 -0.1329
9.5000 -6.3021 -0.1319
9.5200 -6.3155 -0.1316
9.5400 -6.3289 -0.1301
9.5600 -6.3423 -0.1296
9.5800 -6.3556 -0.1292
9.6000 -6.3689 -0.1301
9.6200 -6.3822 -0.1274
9.6400 -6.3955 -0.1306
9.6600 -6.4089 -0.1279
9.6800 -6.4222 -0.1289
9.7000 -6.4355 -0.1286
9.7200 -6.4488 -0.1284
9.7400 -6.4622 -0.1264
9.7600 -6.4755 -0.1278
9.7800 -6.4888 -0.1237
9.8000 -6.5021 -0.1249
9.8200 -6.5155 -0.1234
9.8400 -6.5288 -0.1235
9.8600 -6.5422 -0.1226
9.8800 -6.5555 -0.1243
9.9000 -6.5688 -0.1230
9.9200 -6.5822 -0.1202
9.9400 -6.5956 -0.1209
9.9600 -6.6088 -0.1226
9.9800 -6.6222 -0.1228
10.0000 -6.6355 -0.1234
10.0200 -6.6489 -0.1220
10.0400 -6.6622 -0.1213
10.0600 -6.6755 -0.1236
10.0800 -6.6888 -0.1228
10.1000 -6.7022 -0.1219
10.1200 -6.7155 -0.1227
10.1400 -6.7288 -0.1216
10.1600 -6.7421 -0.1197
10.1800 -6.7555 -0.1217
10.2000 -6.7688 -0.1187
10.2200 -6.7822 -0.1202
10.2400 -6.7955 -0.1198
10.2600 -6.8088 -0.1187
10.2800 -6.8222 -0.1180
10.3000 -6.8355 -0.1190
10.3200 -6.8489 -0.1190
10.3400 -6.8622 -0.1180
10.3600 -6.8755 -0.1183
10.3800 -6.8889 -0.1185
10.4000 -6.9022 -0.1162
10.4200 -6.9155 -0.1164
10.4400 -6.9289 -0.1149
10.4600 -6.9422 -0.1132
10.4800 -6.9555 -0.1137
10.5000 -6.9688 -0.1137
10.5200 -6.9821 -0.1126
10.5400 -6.9955 -0.1143
10.5600 -7.0088 -0.1118
10.5800 -7.0222 -0.1103
10.6000 -7.0355 -0.1103
10.6200 -7.0488 -0.1117
10.6400 -7.0622 -0.1095
10.6600 -7.0756 -0.1122
10.6800 -7.0889 -0.1107
10.7000 -7.1022 -0.1095
10.7200 -7.1155 -0.1098
10.7400 -7.1289 -0.1108
10.7600 -7.1422 -0.1090
10.7800 -7.1555 -0.1096
10.8000 -7.1688 -0.1083
10.8200 -7.1822 -0.1083
10.8400 -7.1955 -0.1096
10.8600 -7.2088 -0.1050
10.8800 -7.2221 -0.1042
10.9000 -7.2355 -0.1041
10.9200 -7.2489 -0.1060
10.9400 -7.2622 -0.1021
10.9600 -7.2755 -0.1060
10.9800 -7.2888 -0.1031
11.0000 -7.3022 -0.1026
11.0200 -7.3156 -0.1014
11.0400 -7.3289 -0.1030
11.0600 -7.3422 -0.0987
11.0800 -7.3555 -0.1006
11.1000 -7.3689 -0.0986
11.1200 -7.3822 -0.0988
11.1400 -7.3955 -0.0993
11.1600 -7.4088 -0.0998
11.1800 -7.4221 -0.0977
11.2000 -7.4355 -0.0991
11.2200 -7.4488 -0.0982
11.2400 -7.4621 -0.0967
11.2600 -7.4755 -0.0968
11.2800 -7.4889 -0.0979
11.3000 -7.5022 -0.0962
11.3200 -7.5155 -0.0950
11.3400 -7.5288 -0.0964
11.3600 -7.5422 -0.0948
11.3800 -7.5556 -0.0941
11.4000 -7.5689 -0.0949
11.4200 -7.5822 -0.0923
11.4400 -7.5955 -0.0942
11.4600 -7.6089 -0.0946
11.4800 -7.6222 -0.0915
11.5000 -7.6356 -0.0936
11.5200 -7.6489 -0.0912
11.5400 -7.6622 -0.0905
11.5600 -7.6756 -0.0891
11.5800 -7.6888 -0.0895
11.6000 -7.7021 -0.0878
11.6200 -7.7154 -0.0895
11.6400 -7.7288 -0.0877
11.6600 -7.7421 -0.0889
11.6800 -7.7554 -0.0865
11.7000 -7.7688 -0.0888
11.7200 -7.7822 -0.0847
11.7400 -7.7956 -0.0858
11.7600 -7.8089 -0.0876
11.7800 -7.8222 -0.0864
11.8000 -7.8355 -0.0852
11.8200 -7.8489 -0.0868
11.8400 -7.8623 -0.0842
11.8600 -7.8755 -0.0857
11.8800 -7.8889 -0.0848
11.9000 -7.9022 -0.0840
11.9200 -7.9155 -0.0837
11.9400 -7.9288 -0.0858
11.9600 -7.9421 -0.0839
11.9800 -7.9555 -0.0843
12.0000 -7.9688 -0.0830
12.0200 -7.9822 -0.0808
12.0400 -7.9955 -0.0814
12.0600 -8.0088 -0.0810
12.0800 -8.0222 -0.0779
12.1000 -8.0356 -0.0805
12.1200 -8.0489 -0.0791
12.1400 -8.0622 -0.0783
12.1600 -8.0755 -0.0771
12.1800 -8.0889 -0.0777
12.2000 -8.1022 -0.0765
12.2200 -8.1155 -0.0747
12.2400 -8.1288 -0.0767
12.2600 -8.1422 -0.0748
12.2800 -8.1555 -0.0755
12.3000 -8.1688 -0.0748
12.3200 -8.1821 -0.0762
12.3400 -8.1955 -0.0737
12.3600 -8.2088 -0.0755
12.3800 -8.2222 -0.0739
12.4000 -8.2355 -0.0736
12.4200 -8.2488 -0.0725
12.4400 -8.2622 -0.0714
12.4600 -8.2755 -0.0698
12.4800 -8.2889 -0.0723
12.5000 -8.3022 -0.0684
12.5200 -8.3156 -0.0688
12.5400 -8.3289 -0.0698
12.5600 -8.3422 -0.0680
12.5800 -8.3555 -0.0692
12.6000 -8.3688 -0.0700
12.6200 -8.3822 -0.0665
12.6400 -8.3955 -0.0664
12.6600 -8.4088 -0.0682
12.6800 -8.4221 -0.0661
12.7000 -8.4354 -0.0662
12.7200 -8.4488 -0.0662
12.7400 -8.4621 -0.0642
12.7600 -8.4755 -0.0649
12.7800 -8.4888 -0.0661
12.8000 -8.5022 -0.0652
12.8200 -8.5155 -0.0615
12.8400 -8.5288 -0.0636
12.8600 -8.5422 -0.0603
12.8800 -8.5555 -0.0612
12.9000 -8.5689 -0.0590
12.9200 -8.5822 -0.0613
12.9400 -8.5955 -0.0609
12.9600 -8.6088 -0.0627
12.9800 -8.6222 -0.0613
13.0000 -8.6355 -0.0607
13.0200 -8.6488 -0.0603
13.0400 -8.6621 -0.0584
13.0600 -8.6755 -0.0581
13.0800 -8.6888 -0.0607
13.1000 -8.7022 -0.0590
13.1200 -8.7155 -0.0598
13.1400 -8.7288 -0.0598
13.1600 -8.7422 -0.0589
13.1800 -8.7555 -0.0594
13.2000 -8.7689 -0.0587
13.2200 -8.7822 -0.0617
13.2400 -8.7955 -0.0615
13.2600 -8.8089 -0.0605
13.2800 -8.8223 -0.0581
13.3000 -8.8356 -0.0592
13.3200 -8.8489 -0.0594
13.3400 -8.8622 -0.0578
13.3600 -8.8756 -0.0541
13.3800 -8.8888 -0.0566
13.4000 -8.9021 -0.0545
13.4200 -8.9155 -0.0554
13.4400 -8.9288 -0.0550
13.4600 -8.9422 -0.0535
13.4800 -8.9555 -0.0514
13.5000 -8.9688 -0.0519
13.5200 -8.9822 -0.0512
13.5400 -8.9955 -0.0494
13.5600 -9.0089 -0.0516
13.5800 -9.0222 -0.0486
13.6000 -9.0355 -0.0506
13.6200 -9.0489 -0.0517
13.6400 -9.0622 -0.0496
13.6600 -9.0756 -0.0479
13.6800 -9.0889 -0.0489
13.7000 -9.1022 -0.0476
13.7200 -9.1155 -0.0472
13.7400 -9.1288 -0.0479
13.7600 -9.1421 -0.0481
13.7800 -9.1554 -0.0456
13.8000 -9.1688 -0.0472
13.8200 -9.1822 -0.0465
13.8400 -9.1955 -0.0441
13.8600 -9.2088 -0.0459
13.8800 -9.2222 -0.0440
13.9000 -9.2356 -0.0429
13.9200 -9.2489 -0.0449
13.9400 -9.2622 -0.0422
13.9600 -9.2756 -0.0433
13.9800 -9.2889 -0.0420
14.0000 -9.3022 -0.0418
14.0200 -9.3155 -0.0398
14.0400 -9.3288 -0.0420
14.0600 -9.3421 -0.0397
14.0800 -9.3554 -0.0400
14.1000 -9.3688 -0.0391
14.1200 -9.3821 -0.0412
14.1400 -9.3954 -0.0382
14.1600 -9.4088 -0.0388
14.1800 -9.4222 -0.0377
14.2000 -9.4355 -0.0384
14.2200 -9.4488 -0.0394
14.2400 -9.4622 -0.0391
14.2600 -9.4756 -0.0399
14.2800 -9.4889 -0.0383
14.3000 -9.5022 -0.0385
14.3200 -9.5155 -0.0348
14.3400 -9.5289 -0.0363
14.3600 -9.5422 -0.0351
14.3800 -9.5556 -0.0342
14.4000 -9.5689 -0.0342
14.4200 -9.5822 -0.0344
14.4400 -9.5955 -0.0326
14.4600 -9.6089 -0.0329
14.4800 -9.6221 -0.0320
14.5000 -9.6355 -0.0323
14.5200 -9.6488 -0.0299
14.5400 -9.6622 -0.0302
14.5600 -9.6755 -0.0296
14.5800 -9.6888 -0.0313
14.6000 -9.7022 -0.0308
14.6200 -9.7156 -0.0304
14.6400 -9.7289 -0.0287
14.6600 -9.7422 -0.0298
14.6800 -9.7555 -0.0278
14.7000 -9.7689 -0.0306
14.7200 -9.7822 -0.0276
14.7400 -9.7955 -0.0289
14.7600 -9.8088 -0.0268
14.7800 -9.8222 -0.0287
14.8000 -9.8355 -0.0244
14.8200 -9.8488 -0.0269
14.8400 -9.8621 -0.0276
14.8600 -9.8754 -0.0266
14.8800 -9.8888 -0.0260
14.9000 -9.9022 -0.0236
14.9200 -9.9155 -0.0222
14.9400 -9.9288 -0.0233
14.9600 -9.9422 -0.0225
14.9800 -9.9555 -0.0219
15.0000 -9.9689 -0.0228
15.0200 -9.9822 -0.0212
15.0400 -9.9955 -0.0217
15.0600 -10.0089 -0.0219
15.0800 -10.0222 -0.0231
15.1000 -10.0355 -0.0174
15.1200 -10.0488 -0.0190
15.1400 -10.0621 -0.0192
15.1600 -10.0755 -0.0195
15.1800 -10.0888 -0.0177
15.2000 -10.1021 -0.0188
15.2200 -10.1154 -0.0172
15.2400 -10.1288 -0.0195
15.2600 -10.1422 -0.0170
15.2800 -10.1555 -0.0190
15.3000 -10.1688 -0.0169
15.3200 -10.1822 -0.0178
15.3400 -10.1956 -0.0161
15.3600 -10.2089 -0.0156
15.3800 -10.2222 -0.0161
15.4000 -10.2355 -0.0141
15.4200 -10.2489 -0.0148
15.4400 -10.2622 -0.0170
15.4600 -10.2756 -0.0147
15.4800 -10.2889 -0.0161
15.5000 -10.3022 -0.0137
15.5200 -10.3155 -0.0124
15.5400 -10.3288 -0.0122
15.5600 -10.3421 -0.0114
15.5800 -10.3554 -0.0106
15.6000 -10.3688 -0.0102
15.6200 -10.3821 -0.0110
15.6400 -10.3955 -0.0102
15.6600 -10.4088 -0.0111
15.6800 -10.4222 -0.0111
15.7000 -10.4356 -0.0098
15.7200 -10.4489 -0.0092
15.7400 -10.4623 -0.0091
15.7600 -10.4756 -0.0079
15.7800 -10.4889 -0.0101
15.8000 -10.5022 -0.0085
15.8200 -10.5156 -0.0063
15.8400 -10.5288 -0.0052
15.8600 -10.5422 -0.0057
15.8800 -10.5555 -0.0039
15.9000 -10.5688 -0.0047
15.9200 -10.5821 -0.0047
15.9400 -10.5954 -0.0042
15.9600 -10.6087 -0.0012
15.9800 -10.6221 -0.0019
16.0000 -10.6355 -0.0011
16.0200 -10.6488 -0.0013
16.0400 -10.6622 -0.0013
16.0600 -10.6756 -0.0005
16.0800 -10.6889 -0.0006
16.1000 -10.7022 -0.0012
16.1200 -10.7155 0.0007
16.1400 -10.7289 0.0016
16.1600 -10.7422 0.0002
16.1800 -10.7555 0.0031
16.2000 -10.7688 0.0045
16.2200 -10.7821 0.0015
16.2400 -10.7955 0.0031
16.2600 -10.8088 0.0041
16.2800 -10.8221 0.0049
